File: 2_Tensile_Data/Hamel_ForceTest_Bolt6_Test10.csv
Time, Load (lb), Position (in), AxialStrain (in), TransverseStrain (in), Auxiliary (), Control Out (V), Stress (psi)
0.0, 13.564, 0.0, NaN, NaN, NaN, -0.007935055, "- N/A -   "
0.01, 13.564, 0.0, NaN, NaN, NaN, -6.103888E-4, "- N/A -   "
0.02, 13.6819, 0.0, NaN, NaN, NaN, 0.0115974, "- N/A -   "
0.03, 13.6819, 2.776752E-6, NaN, NaN, NaN, 0.0299091, "- N/A -   "
0.04, 13.7999, 8.330256E-6, NaN, NaN, NaN, 0.04699994, "- N/A -   "
0.05, 14.0357, 2.2214e-05, NaN, NaN, NaN, 0.06164927, "- N/A -   "
0.06, 14.2716, 3.60978e-05, NaN, NaN, NaN, 0.07385705, "- N/A -   "
0.07, 14.7434, 5.83118e-05, NaN, NaN, NaN, 0.084844, "- N/A -   "
0.08, 15.3332, 8.607931E-5, NaN, NaN, NaN, 0.09216871, "- N/A -   "
0.09, 15.805, 0.000113847, NaN, NaN, NaN, 0.09949338, "- N/A -   "
0.1, 16.5126, 0.000144391, NaN, NaN, NaN, 0.101935, "- N/A -   "
0.11, 16.9844, 0.000177712, NaN, NaN, NaN, 0.095831, "- N/A -   "
0.12, 17.5742, 0.000208256, NaN, NaN, NaN, 0.0897272, "- N/A -   "
0.13, 18.046, 0.000238801, NaN, NaN, NaN, 0.08362327, "- N/A -   "
0.14, 18.6357, 0.000263791, NaN, NaN, NaN, 0.0799609, "- N/A -   "
0.15, 18.9895, 0.000288782, NaN, NaN, NaN, 0.0762986, "- N/A -   "
0.16, 19.3434, 3.109962E-4, NaN, NaN, NaN, 0.07385705, "- N/A -   "
0.17, 19.6972, 0.000330433, NaN, NaN, NaN, 0.07141549, "- N/A -   "
0.18, 20.05107, 0.000352647, NaN, NaN, NaN, 0.0701947, "- N/A -   "
0.19, 20.52286, 0.000372085, NaN, NaN, NaN, 0.06775316, "- N/A -   "
0.2, 20.7588, 0.000394299, NaN, NaN, NaN, 0.0653116, "- N/A -   "
0.21, 21.2305, 4.13736E-4, NaN, NaN, NaN, 0.0640908, "- N/A -   "
0.22, 21.46644, 4.331733E-4, NaN, NaN, NaN, 0.06287005, "- N/A -   "
0.23, 21.7023, 0.000449834, NaN, NaN, NaN, 0.06287005, "- N/A -   "
0.24, 21.93823, 0.000469271, NaN, NaN, NaN, 0.06164927, "- N/A -   "
0.25, 22.29207, 4.887083E-4, NaN, NaN, NaN, 0.06164927, "- N/A -   "
0.26, 22.6459, 5.053688E-4, NaN, NaN, NaN, 0.0604285, "- N/A -   "
0.27, 22.9998, 5.248061E-4, NaN, NaN, NaN, 0.0592077, "- N/A -   "
0.28, 23.1177, 5.442434E-4, NaN, NaN, NaN, 0.0579869, "- N/A -   "
0.29, 23.5895, 5.664574E-4, NaN, NaN, NaN, 0.05676616, "- N/A -   "
0.3, 23.9433, 5.858946E-4, NaN, NaN, NaN, 0.0555454, "- N/A -   "
0.31, 24.1792, 6.053319E-4, NaN, NaN, NaN, 0.0531038, "- N/A -   "
0.33, 25.0049, 6.442064E-4, NaN, NaN, NaN, 0.05066227, "- N/A -   "
0.35, 25.4767, 6.858577E-4, NaN, NaN, NaN, 0.04699994, "- N/A -   "
0.37, 26.18434, 7.27509E-4, NaN, NaN, NaN, 0.0445584, "- N/A -   "
0.39, 26.892, 7.663835E-4, NaN, NaN, NaN, 0.04089605, "- N/A -   "
0.41, 27.3638, 0.000802481, NaN, NaN, NaN, 0.0396753, "- N/A -   "
0.43, 28.0715, 8.358023E-4, NaN, NaN, NaN, 0.0396753, "- N/A -   "
0.45, 28.54329, 0.0008719, NaN, NaN, NaN, 0.0384545, "- N/A -   "
0.47, 29.133, 0.000907998, NaN, NaN, NaN, 0.0384545, "- N/A -   "
0.49, 29.6048, 9.440956E-4, NaN, NaN, NaN, 0.03601294, "- N/A -   "
0.51, 30.1946, 9.774166E-4, NaN, NaN, NaN, 0.03601294, "- N/A -   "
0.53, 30.78429, 0.00101629, NaN, NaN, NaN, 0.0335714, "- N/A -   "
0.55, 31.492, 0.00105239, NaN, NaN, NaN, 0.0323506, "- N/A -   "
0.57, 31.9638, 0.00108571, NaN, NaN, NaN, 0.0323506, "- N/A -   "
0.59, 32.5535, 0.00112181, NaN, NaN, NaN, 0.03112983, "- N/A -   "
0.61, 33.02529, 0.001152352, NaN, NaN, NaN, 0.0323506, "- N/A -   "
0.63, 33.61503, 0.00118845, NaN, NaN, NaN, 0.03112983, "- N/A -   "
0.65, 34.08682, 0.00122177, NaN, NaN, NaN, 0.03112983, "- N/A -   "
0.67, 34.6766, 0.00125232, NaN, NaN, NaN, 0.0323506, "- N/A -   "
0.69, 35.1483, 0.00128286, NaN, NaN, NaN, 0.0335714, "- N/A -   "
0.71, 35.6201, 0.00131063, NaN, NaN, NaN, 0.03601294, "- N/A -   "
0.73, 36.0919, 0.00134117, NaN, NaN, NaN, 0.0372337, "- N/A -   "
0.75, 36.6817, 0.00137172, NaN, NaN, NaN, 0.0384545, "- N/A -   "
0.77, 37.0355, 0.00140226, NaN, NaN, NaN, 0.0396753, "- N/A -   "
0.79, 37.5073, 0.00143003, NaN, NaN, NaN, 0.04211683, "- N/A -   "
0.81, 37.9791, 0.00146335, NaN, NaN, NaN, 0.0433376, "- N/A -   "
0.83, 38.5688, 0.00149389, NaN, NaN, NaN, 0.0445584, "- N/A -   "
0.85, 39.04061, 0.00152444, NaN, NaN, NaN, 0.0445584, "- N/A -   "
0.87, 39.7483, 0.00156053, NaN, NaN, NaN, 0.0433376, "- N/A -   "
0.89, 40.33803, 0.00159386, NaN, NaN, NaN, 0.0433376, "- N/A -   "
0.91, 40.8098, 0.00162718, NaN, NaN, NaN, 0.0433376, "- N/A -   "
0.93, 41.39956, 0.0016605, NaN, NaN, NaN, 0.0433376, "- N/A -   "
0.95, 41.9893, 0.00169382, NaN, NaN, NaN, 0.0433376, "- N/A -   "
0.97, 42.579, 0.00172992, NaN, NaN, NaN, 0.04211683, "- N/A -   "
0.99, 43.1688, 0.00176601, NaN, NaN, NaN, 0.04089605, "- N/A -   "
1.01, 43.87646, 0.001802112, NaN, NaN, NaN, 0.0396753, "- N/A -   "
1.03, 44.34825, 0.001835433, NaN, NaN, NaN, 0.0396753, "- N/A -   "
1.05, 44.93799, 0.00187153, NaN, NaN, NaN, 0.0384545, "- N/A -   "
1.07, 45.76362, 0.00191596, NaN, NaN, NaN, 0.0347922, "- N/A -   "
1.09, 46.4713, 0.00195761, NaN, NaN, NaN, 0.0299091, "- N/A -   "
1.11, 47.179, 0.00199648, NaN, NaN, NaN, 0.0286883, "- N/A -   "
1.13, 47.7687, 0.00202981, NaN, NaN, NaN, 0.0274675, "- N/A -   "
1.15, 48.2405, 0.00206313, NaN, NaN, NaN, 0.0274675, "- N/A -   "
1.17, 48.83025, 0.002093671, NaN, NaN, NaN, 0.0286883, "- N/A -   "
1.19, 49.30204, 0.002126992, NaN, NaN, NaN, 0.0286883, "- N/A -   "
1.21, 49.8918, 0.00216031, NaN, NaN, NaN, 0.0286883, "- N/A -   "
1.23, 50.3636, 0.002193634, NaN, NaN, NaN, 0.0286883, "- N/A -   "
1.25, 51.0713, 0.002226955, NaN, NaN, NaN, 0.0286883, "- N/A -   "
1.27, 51.543, 0.0022575, NaN, NaN, NaN, 0.0299091, "- N/A -   "
1.29, 52.01483, 0.00229082, NaN, NaN, NaN, 0.03112983, "- N/A -   "
1.31, 52.6046, 0.00231859, NaN, NaN, NaN, 0.0323506, "- N/A -   "
1.33, 53.0764, 0.002349132, NaN, NaN, NaN, 0.0335714, "- N/A -   "
1.35, 53.54815, 0.00237968, NaN, NaN, NaN, 0.0347922, "- N/A -   "
1.37, 54.2558, 0.00241022, NaN, NaN, NaN, 0.03601294, "- N/A -   "
1.39, 54.7276, 0.00244076, NaN, NaN, NaN, 0.0372337, "- N/A -   "
1.41, 55.1994, 0.00247131, NaN, NaN, NaN, 0.0384545, "- N/A -   "
1.43, 55.6712, 0.00250463, NaN, NaN, NaN, 0.0396753, "- N/A -   "
1.45, 56.2609, 0.002537951, NaN, NaN, NaN, 0.0396753, "- N/A -   "
1.47, 56.85068, 0.0025685, NaN, NaN, NaN, 0.04089605, "- N/A -   "
1.49, 57.32247, 0.002596263, NaN, NaN, NaN, 0.04211683, "- N/A -   "
1.51, 57.91221, 0.00262958, NaN, NaN, NaN, 0.0433376, "- N/A -   "
1.53, 58.5019, 0.00266013, NaN, NaN, NaN, 0.0433376, "- N/A -   "
1.55, 58.9737, 0.00269067, NaN, NaN, NaN, 0.0445584, "- N/A -   "
1.57, 59.4455, 0.00272399, NaN, NaN, NaN, 0.04577916, "- N/A -   "
1.59, 59.9173, 0.002751761, NaN, NaN, NaN, 0.04699994, "- N/A -   "
1.61, 60.625, 0.00278508, NaN, NaN, NaN, 0.04699994, "- N/A -   "
1.63, 61.09679, 0.0028184, NaN, NaN, NaN, 0.04699994, "- N/A -   "
1.65, 61.8045, 0.00285728, NaN, NaN, NaN, 0.04577916, "- N/A -   "
1.67, 62.6301, 0.00289615, NaN, NaN, NaN, 0.0433376, "- N/A -   "
1.69, 63.33779, 0.00293503, NaN, NaN, NaN, 0.0396753, "- N/A -   "
1.71, 64.04548, 0.0029739, NaN, NaN, NaN, 0.0372337, "- N/A -   "
1.73, 64.6352, 0.003012776, NaN, NaN, NaN, 0.03601294, "- N/A -   "
1.75, 65.4608, 0.00305165, NaN, NaN, NaN, 0.0323506, "- N/A -   "
1.77, 66.05058, 0.003087748, NaN, NaN, NaN, 0.03112983, "- N/A -   "
1.79, 66.64032, 0.003123846, NaN, NaN, NaN, 0.0299091, "- N/A -   "
1.81, 67.1121, 0.003157167, NaN, NaN, NaN, 0.0299091, "- N/A -   "
1.83, 67.70185, 0.00318771, NaN, NaN, NaN, 0.03112983, "- N/A -   "
1.85, 68.29159, 0.00321826, NaN, NaN, NaN, 0.0323506, "- N/A -   "
1.87, 68.8813, 0.00325158, NaN, NaN, NaN, 0.0335714, "- N/A -   "
1.89, 69.35311, 0.00328212, NaN, NaN, NaN, 0.0335714, "- N/A -   "
1.9, 69.707, 0.003296, NaN, NaN, NaN, 0.0347922, "- N/A -   "
1.91, 69.94285, 0.003309888, NaN, NaN, NaN, 0.03601294, "- N/A -   "
1.94, 70.6505, 0.00335987, NaN, NaN, NaN, 0.0372337, "- N/A -   "
1.97, 71.59412, 0.003409851, NaN, NaN, NaN, 0.03601294, "- N/A -   "
2, 72.65564, 0.003468163, NaN, NaN, NaN, 0.0335714, "- N/A -   "
2.03, 73.59922, 0.00351814, NaN, NaN, NaN, 0.0323506, "- N/A -   "
2.06, 74.5428, 0.00356535, NaN, NaN, NaN, 0.0335714, "- N/A -   "
2.09, 75.36844, 0.003615331, NaN, NaN, NaN, 0.0335714, "- N/A -   "
2.12, 76.31202, 0.00366254, NaN, NaN, NaN, 0.03601294, "- N/A -   "
2.15, 77.13765, 0.003704187, NaN, NaN, NaN, 0.0384545, "- N/A -   "
2.18, 77.96328, 0.003748615, NaN, NaN, NaN, 0.04089605, "- N/A -   "
2.21, 78.90686, 0.0037986, NaN, NaN, NaN, 0.04089605, "- N/A -   "
2.24, 79.96838, 0.00385135, NaN, NaN, NaN, 0.0396753, "- N/A -   "
2.27, 80.912, 0.00390134, NaN, NaN, NaN, 0.0396753, "- N/A -   "
2.3, 82.09144, 0.00395409, NaN, NaN, NaN, 0.0384545, "- N/A -   "
2.33, 83.03502, 0.004006853, NaN, NaN, NaN, 0.0384545, "- N/A -   "
2.36, 84.09654, 0.00405961, NaN, NaN, NaN, 0.03601294, "- N/A -   "
2.39, 85.15807, 0.00410959, NaN, NaN, NaN, 0.03601294, "- N/A -   "
2.42, 86.1017, 0.00415957, NaN, NaN, NaN, 0.03601294, "- N/A -   "
2.45, 87.04523, 0.004206779, NaN, NaN, NaN, 0.0372337, "- N/A -   "
2.48, 88.10676, 0.00425954, NaN, NaN, NaN, 0.0372337, "- N/A -   "
2.51, 89.16828, 0.00430952, NaN, NaN, NaN, 0.0372337, "- N/A -   "
2.54, 90.34776, 0.004362277, NaN, NaN, NaN, 0.0347922, "- N/A -   "
2.57, 91.2913, 0.00441504, NaN, NaN, NaN, 0.0335714, "- N/A -   "
2.6, 92.58876, 0.00447057, NaN, NaN, NaN, 0.0323506, "- N/A -   "
2.63, 93.65029, 0.004520552, NaN, NaN, NaN, 0.03112983, "- N/A -   "
2.66, 94.7118, 0.00457331, NaN, NaN, NaN, 0.0299091, "- N/A -   "
2.69, 95.8913, 0.00462607, NaN, NaN, NaN, 0.0286883, "- N/A -   "
2.72, 96.83487, 0.00467605, NaN, NaN, NaN, 0.0299091, "- N/A -   "
2.75, 97.77845, 0.004720478, NaN, NaN, NaN, 0.03112983, "- N/A -   "
2.78, 98.72203, 0.004764906, NaN, NaN, NaN, 0.0335714, "- N/A -   "
2.81, 99.66561, 0.004812111, NaN, NaN, NaN, 0.0347922, "- N/A -   "
2.84, 100.727, 0.004859315, NaN, NaN, NaN, 0.0372337, "- N/A -   "
2.87, 101.671, 0.00490374, NaN, NaN, NaN, 0.0384545, "- N/A -   "
2.9, 102.6143, 0.00495373, NaN, NaN, NaN, 0.0396753, "- N/A -   "
2.93, 103.676, 0.00500093, NaN, NaN, NaN, 0.0396753, "- N/A -   "
2.96, 104.619, 0.00504536, NaN, NaN, NaN, 0.0433376, "- N/A -   "
2.99, 105.563, 0.00508979, NaN, NaN, NaN, 0.0445584, "- N/A -   "
3.02, 106.742, 0.00513977, NaN, NaN, NaN, 0.0445584, "- N/A -   "
3.05, 107.804, 0.00518975, NaN, NaN, NaN, 0.04577916, "- N/A -   "
3.08, 108.866, 0.00524251, NaN, NaN, NaN, 0.0433376, "- N/A -   "
3.11, 110.281, 0.0053036, NaN, NaN, NaN, 0.0396753, "- N/A -   "
3.14, 111.578, 0.00536191, NaN, NaN, NaN, 0.0347922, "- N/A -   "
3.17, 112.876, 0.00542022, NaN, NaN, NaN, 0.0323506, "- N/A -   "
3.2, 113.701, 0.00546465, NaN, NaN, NaN, 0.0335714, "- N/A -   "
3.23, 114.881, 0.005514629, NaN, NaN, NaN, 0.0347922, "- N/A -   "
3.26, 115.824, 0.00556183, NaN, NaN, NaN, 0.0347922, "- N/A -   "
3.29, 116.768, 0.005609039, NaN, NaN, NaN, 0.03601294, "- N/A -   "
3.32, 118.065, 0.0056618, NaN, NaN, NaN, 0.0347922, "- N/A -   "
3.35, 119.245, 0.00571456, NaN, NaN, NaN, 0.0335714, "- N/A -   "
3.38, 120.424, 0.00577287, NaN, NaN, NaN, 0.0299091, "- N/A -   "
3.41, 121.604, 0.00582563, NaN, NaN, NaN, 0.0286883, "- N/A -   "
3.44, 122.429, 0.00587005, NaN, NaN, NaN, 0.03112983, "- N/A -   "
3.47, 123.491, 0.005917258, NaN, NaN, NaN, 0.0323506, "- N/A -   "
3.5, 124.553, 0.005961686, NaN, NaN, NaN, 0.0347922, "- N/A -   "
3.53, 125.378, 0.00600889, NaN, NaN, NaN, 0.0372337, "- N/A -   "
3.56, 126.322, 0.00605332, NaN, NaN, NaN, 0.0396753, "- N/A -   "
3.59, 127.265, 0.00609219, NaN, NaN, NaN, 0.0433376, "- N/A -   "
3.62, 128.209, 0.006139398, NaN, NaN, NaN, 0.04699994, "- N/A -   "
3.65, 129.27, 0.00618938, NaN, NaN, NaN, 0.04577916, "- N/A -   "
3.68, 130.332, 0.00623936, NaN, NaN, NaN, 0.04577916, "- N/A -   "
3.71, 131.511, 0.00629767, NaN, NaN, NaN, 0.0433376, "- N/A -   "
3.74, 132.809, 0.00635598, NaN, NaN, NaN, 0.0384545, "- N/A -   "
3.77, 133.87, 0.00640874, NaN, NaN, NaN, 0.0372337, "- N/A -   "
3.8, 134.814, 0.006461502, NaN, NaN, NaN, 0.0372337, "- N/A -   "
3.83, 135.993, 0.00651426, NaN, NaN, NaN, 0.03601294, "- N/A -   "
3.86, 137.055, 0.006564242, NaN, NaN, NaN, 0.0347922, "- N/A -   "
3.89, 137.999, 0.00661422, NaN, NaN, NaN, 0.0347922, "- N/A -   "
3.92, 139.06, 0.00666976, NaN, NaN, NaN, 0.0323506, "- N/A -   "
3.95, 140.357, 0.00672529, NaN, NaN, NaN, 0.0299091, "- N/A -   "
3.98, 141.301, 0.006778052, NaN, NaN, NaN, 0.0286883, "- N/A -   "
4.01, 142.245, 0.00682803, NaN, NaN, NaN, 0.0286883, "- N/A -   "
4.04, 143.188, 0.006878014, NaN, NaN, NaN, 0.0286883, "- N/A -   "
4.07, 144.25, 0.00692522, NaN, NaN, NaN, 0.0299091, "- N/A -   "
4.1, 145.0754, 0.00696965, NaN, NaN, NaN, 0.0335714, "- N/A -   "
4.13, 146.019, 0.0070113, NaN, NaN, NaN, 0.03601294, "- N/A -   "
4.16, 146.727, 0.00705573, NaN, NaN, NaN, 0.0384545, "- N/A -   "
4.19, 147.788, 0.00710015, NaN, NaN, NaN, 0.04211683, "- N/A -   "
4.22, 148.6138, 0.00714458, NaN, NaN, NaN, 0.0445584, "- N/A -   "
4.25, 149.675, 0.007194564, NaN, NaN, NaN, 0.0433376, "- N/A -   "
4.28, 150.619, 0.007244546, NaN, NaN, NaN, 0.0445584, "- N/A -   "
4.31, 151.68, 0.007294527, NaN, NaN, NaN, 0.0433376, "- N/A -   "
4.34, 152.624, 0.00734173, NaN, NaN, NaN, 0.0445584, "- N/A -   "
4.37, 153.686, 0.007391713, NaN, NaN, NaN, 0.0445584, "- N/A -   "
4.4, 154.629, 0.007441695, NaN, NaN, NaN, 0.0445584, "- N/A -   "
4.43, 155.809, 0.00749723, NaN, NaN, NaN, 0.0433376, "- N/A -   "
4.46, 156.988, 0.007552765, NaN, NaN, NaN, 0.0396753, "- N/A -   "
4.49, 158.0496, 0.007613853, NaN, NaN, NaN, 0.03601294, "- N/A -   "
4.52, 159.347, 0.007672165, NaN, NaN, NaN, 0.03112983, "- N/A -   "
4.55, 160.409, 0.007722147, NaN, NaN, NaN, 0.03112983, "- N/A -   "
4.58, 161.352, 0.00777491, NaN, NaN, NaN, 0.03112983, "- N/A -   "
4.61, 162.296, 0.007819333, NaN, NaN, NaN, 0.0323506, "- N/A -   "
4.64, 163.2393, 0.007866538, NaN, NaN, NaN, 0.0335714, "- N/A -   "
4.67, 164.183, 0.007916519, NaN, NaN, NaN, 0.0335714, "- N/A -   "
4.7, 165.126, 0.007960947, NaN, NaN, NaN, 0.0372337, "- N/A -   "
4.73, 166.07, 0.008008153, NaN, NaN, NaN, 0.0372337, "- N/A -   "
4.76, 167.014, 0.008055357, NaN, NaN, NaN, 0.0384545, "- N/A -   "
4.79, 167.9572, 0.008105339, NaN, NaN, NaN, 0.0384545, "- N/A -   "
4.82, 169.019, 0.008155321, NaN, NaN, NaN, 0.0384545, "- N/A -   "
4.85, 170.08, 0.008208079, NaN, NaN, NaN, 0.0372337, "- N/A -   "
4.88, 171.142, 0.008255283, NaN, NaN, NaN, 0.0384545, "- N/A -   "
4.91, 171.9674, 0.008302487, NaN, NaN, NaN, 0.04089605, "- N/A -   "
4.94, 172.793, 0.008346915, NaN, NaN, NaN, 0.04211683, "- N/A -   "
4.97, 173.855, 0.008396897, NaN, NaN, NaN, 0.0433376, "- N/A -   "
5, 174.798, 0.008441325, NaN, NaN, NaN, 0.0445584, "- N/A -   "
5.03, 175.86, 0.008494084, NaN, NaN, NaN, 0.0433376, "- N/A -   "
5.06, 177.039, 0.00854962, NaN, NaN, NaN, 0.04211683, "- N/A -   "
5.09, 178.219, 0.008607931, NaN, NaN, NaN, 0.0372337, "- N/A -   "
5.12, 179.516, 0.008666243, NaN, NaN, NaN, 0.0335714, "- N/A -   "
5.15, 180.578, 0.00872455, NaN, NaN, NaN, 0.0299091, "- N/A -   "
5.18, 181.639, 0.008780089, NaN, NaN, NaN, 0.0286883, "- N/A -   "
5.21, 182.701, 0.008827294, NaN, NaN, NaN, 0.0286883, "- N/A -   "
5.24, 183.526, 0.008868946, NaN, NaN, NaN, 0.0323506, "- N/A -   "
5.27, 184.47, 0.00891615, NaN, NaN, NaN, 0.0335714, "- N/A -   "
5.3, 185.413, 0.008966132, NaN, NaN, NaN, 0.0335714, "- N/A -   "
5.33, 186.357, 0.009013336, NaN, NaN, NaN, 0.0347922, "- N/A -   "
5.36, 187.419, 0.009063318, NaN, NaN, NaN, 0.0347922, "- N/A -   "
5.39, 188.48, 0.009116076, NaN, NaN, NaN, 0.0335714, "- N/A -   "
5.42, 189.5416, 0.009168834, NaN, NaN, NaN, 0.0323506, "- N/A -   "
5.45, 190.603, 0.009218816, NaN, NaN, NaN, 0.0323506, "- N/A -   "
5.48, 191.429, 0.009263244, NaN, NaN, NaN, 0.0347922, "- N/A -   "
5.51, 192.372, 0.009307672, NaN, NaN, NaN, 0.0372337, "- N/A -   "
5.54, 193.198, 0.009354877, NaN, NaN, NaN, 0.0384545, "- N/A -   "
5.57, 194.259, 0.009396528, NaN, NaN, NaN, 0.04211683, "- N/A -   "
5.6, 195.085, 0.00944651, NaN, NaN, NaN, 0.0433376, "- N/A -   "
5.63, 196.265, 0.009496491, NaN, NaN, NaN, 0.04211683, "- N/A -   "
5.66, 197.326, 0.009552026, NaN, NaN, NaN, 0.04089605, "- N/A -   "
5.69, 198.388, 0.009602008, NaN, NaN, NaN, 0.0396753, "- N/A -   "
5.72, 199.449, 0.009654766, NaN, NaN, NaN, 0.0396753, "- N/A -   "
5.75, 200.275, 0.009704748, NaN, NaN, NaN, 0.0396753, "- N/A -   "
5.78, 201.572, 0.00975473, NaN, NaN, NaN, 0.0384545, "- N/A -   "
5.81, 202.634, 0.009807487, NaN, NaN, NaN, 0.0372337, "- N/A -   "
5.84, 203.695, 0.009863023, NaN, NaN, NaN, 0.0347922, "- N/A -   "
5.87, 204.521, 0.009913004, NaN, NaN, NaN, 0.0347922, "- N/A -   "
5.9, 205.582, 0.009962985, NaN, NaN, NaN, 0.03601294, "- N/A -   "
5.93, 206.644, 0.01001019, NaN, NaN, NaN, 0.03601294, "- N/A -   "
5.96, 207.705, 0.0100657, NaN, NaN, NaN, 0.0335714, "- N/A -   "
5.99, 208.767, 0.0101213, NaN, NaN, NaN, 0.03112983, "- N/A -   "
6.02, 209.711, 0.0101685, NaN, NaN, NaN, 0.0323506, "- N/A -   "
6.03, 210.064, 0.0101851, NaN, NaN, NaN, 0.0323506, "- N/A -   "
6.04, 210.3, 0.010199, NaN, NaN, NaN, 0.0335714, "- N/A -   "
6.05, 210.654, 0.0102157, NaN, NaN, NaN, 0.0335714, "- N/A -   "
6.07, 211.362, 0.010249, NaN, NaN, NaN, 0.0335714, "- N/A -   "
6.09, 211.9516, 0.0102823, NaN, NaN, NaN, 0.0335714, "- N/A -   "
6.11, 212.6593, 0.0103129, NaN, NaN, NaN, 0.0347922, "- N/A -   "
6.13, 213.367, 0.0103406, NaN, NaN, NaN, 0.0372337, "- N/A -   "
6.15, 213.957, 0.0103739, NaN, NaN, NaN, 0.0372337, "- N/A -   "
[...]
29.05, 1161.47, 0.0485543, NaN, NaN, NaN, 0.03112983, "- N/A -   "
29.17, 1166.84, 0.0487459, NaN, NaN, NaN, 0.0347922, "- N/A -   "
29.29, 1172.56, 0.0489486, NaN, NaN, NaN, 0.0335714, "- N/A -   "
29.41, 1177.81, 0.049143, NaN, NaN, NaN, 0.03601294, "- N/A -   "
29.53, 1183.05, 0.0493318, NaN, NaN, NaN, 0.04089605, "- N/A -   "
29.65, 1188.78, 0.04954, NaN, NaN, NaN, 0.0384545, "- N/A -   "
29.77, 1194.5, 0.0497427, NaN, NaN, NaN, 0.0372337, "- N/A -   "
29.89, 1200.34, 0.04995654, NaN, NaN, NaN, 0.0299091, "- N/A -   "
30.01, 1205.71, 0.0501509, NaN, NaN, NaN, 0.0323506, "- N/A -   "
30.13, 1211.2, 0.05035084, NaN, NaN, NaN, 0.0323506, "- N/A -   "
30.25, 1216.086, 0.0505313, NaN, NaN, NaN, 0.04089605, "- N/A -   "
30.37, 1221.57, 0.0507229, NaN, NaN, NaN, 0.0445584, "- N/A -   "
30.49, 1227.89, 0.05094784, NaN, NaN, NaN, 0.0335714, "- N/A -   "
30.61, 1233.5, 0.05114777, NaN, NaN, NaN, 0.0335714, "- N/A -   "
30.73, 1239.34, 0.051356, NaN, NaN, NaN, 0.03112983, "- N/A -   "
30.85, 1243.87, 0.0515254, NaN, NaN, NaN, 0.0445584, "- N/A -   "
30.97, 1249.36, 0.05171978, NaN, NaN, NaN, 0.04699994, "- N/A -   "
31.09, 1255.68, 0.0519447, NaN, NaN, NaN, 0.03601294, "- N/A -   "
31.21, 1261.4, 0.05215573, NaN, NaN, NaN, 0.0323506, "- N/A -   "
31.33, 1267.25, 0.05236121, NaN, NaN, NaN, 0.0286883, "- N/A -   "
31.45, 1272.25, 0.0525417, NaN, NaN, NaN, 0.0372337, "- N/A -   "
31.57, 1277.501, 0.05273052, NaN, NaN, NaN, 0.04211683, "- N/A -   "
31.69, 1282.87, 0.05292211, NaN, NaN, NaN, 0.04577916, "- N/A -   "
31.81, 1289.19, 0.05314703, NaN, NaN, NaN, 0.0347922, "- N/A -   "
31.93, 1295.03, 0.0533553, NaN, NaN, NaN, 0.03112983, "- N/A -   "
32.05, 1300.04, 0.0535358, NaN, NaN, NaN, 0.0396753, "- N/A -   "
32.17, 1305.88, 0.0537413, NaN, NaN, NaN, 0.0384545, "- N/A -   "
32.29, 1310.65, 0.0539217, NaN, NaN, NaN, 0.04699994, "- N/A -   "
32.41, 1317.21, 0.0541522, NaN, NaN, NaN, 0.0335714, "- N/A -   "
32.53, 1322.94, 0.0543577, NaN, NaN, NaN, 0.0299091, "- N/A -   "
32.65, 1328.3, 0.0545493, NaN, NaN, NaN, 0.0347922, "- N/A -   "
32.77, 1334.03, 0.054752, NaN, NaN, NaN, 0.0335714, "- N/A -   "
32.89, 1339.03, 0.0549297, NaN, NaN, NaN, 0.04211683, "- N/A -   "
33.01, 1344.52, 0.0551324, NaN, NaN, NaN, 0.04211683, "- N/A -   "
33.13, 1350.36, 0.0553379, NaN, NaN, NaN, 0.0384545, "- N/A -   "
33.25, 1356.45, 0.0555545, NaN, NaN, NaN, 0.0323506, "- N/A -   "
33.37, 1361.812, 0.0557516, NaN, NaN, NaN, 0.0335714, "- N/A -   "
33.49, 1367.3, 0.055946, NaN, NaN, NaN, 0.0347922, "- N/A -   "
33.61, 1372.664, 0.05613759, NaN, NaN, NaN, 0.0396753, "- N/A -   "
33.73, 1378.03, 0.0563292, NaN, NaN, NaN, 0.0433376, "- N/A -   "
33.85, 1384.11, 0.05655133, NaN, NaN, NaN, 0.0335714, "- N/A -   "
33.97, 1389.84, 0.0567513, NaN, NaN, NaN, 0.0323506, "- N/A -   "
34.09, 1395.68, 0.05695951, NaN, NaN, NaN, 0.0286883, "- N/A -   "
34.21, 1401.05, 0.0571511, NaN, NaN, NaN, 0.0335714, "- N/A -   "
34.33, 1405.58, 0.0573205, NaN, NaN, NaN, 0.04699994, "- N/A -   "
34.45, 1411.66, 0.0575343, NaN, NaN, NaN, 0.0396753, "- N/A -   "
34.57, 1417.622, 0.0577481, NaN, NaN, NaN, 0.0347922, "- N/A -   "
34.69, 1423.7, 0.0579591, NaN, NaN, NaN, 0.0299091, "- N/A -   "
34.81, 1428.71, 0.05814796, NaN, NaN, NaN, 0.0347922, "- N/A -   "
34.93, 1433.6, 0.05832845, NaN, NaN, NaN, 0.0433376, "- N/A -   "
35.05, 1439.33, 0.05853115, NaN, NaN, NaN, 0.04089605, "- N/A -   "
35.17, 1445.17, 0.05873941, NaN, NaN, NaN, 0.0372337, "- N/A -   "
35.29, 1451.37, 0.0589615, NaN, NaN, NaN, 0.0274675, "- N/A -   "
35.41, 1456.975, 0.0591531, NaN, NaN, NaN, 0.0323506, "- N/A -   "
35.53, 1462.1, 0.059342, NaN, NaN, NaN, 0.0372337, "- N/A -   "
35.65, 1467.23, 0.0595252, NaN, NaN, NaN, 0.0445584, "- N/A -   "
35.77, 1472.84, 0.05972793, NaN, NaN, NaN, 0.0433376, "- N/A -   "
35.89, 1479.28, 0.0599501, NaN, NaN, NaN, 0.0335714, "- N/A -   "
36.01, 1484.64, 0.0601444, NaN, NaN, NaN, 0.03601294, "- N/A -   "
36.13, 1490.48, 0.0603555, NaN, NaN, NaN, 0.0323506, "- N/A -   "
36.25, 1495.49, 0.0605332, NaN, NaN, NaN, 0.04089605, "- N/A -   "
36.37, 1501.1, 0.0607359, NaN, NaN, NaN, 0.04089605, "- N/A -   "
36.49, 1506.94, 0.0609414, NaN, NaN, NaN, 0.0372337, "- N/A -   "
36.61, 1512.67, 0.0611524, NaN, NaN, NaN, 0.0335714, "- N/A -   "
36.73, 1518.27, 0.06135233, NaN, NaN, NaN, 0.0335714, "- N/A -   "
36.85, 1523.88, 0.0615523, NaN, NaN, NaN, 0.0323506, "- N/A -   "
36.97, 1529.24, 0.0617439, NaN, NaN, NaN, 0.0372337, "- N/A -   "
37.09, 1534.25, 0.06192434, NaN, NaN, NaN, 0.0445584, "- N/A -   "
37.21, 1539.97, 0.06212982, NaN, NaN, NaN, 0.0433376, "- N/A -   "
37.33, 1546.18, 0.0623492, NaN, NaN, NaN, 0.0347922, "- N/A -   "
37.45, 1551.9, 0.0625519, NaN, NaN, NaN, 0.0323506, "- N/A -   "
37.57, 1557.39, 0.0627518, NaN, NaN, NaN, 0.0323506, "- N/A -   "
37.69, 1562.16, 0.06292675, NaN, NaN, NaN, 0.0433376, "- N/A -   "
37.81, 1567.52, 0.0631211, NaN, NaN, NaN, 0.04699994, "- N/A -   "
37.93, 1574.319, 0.0633571, NaN, NaN, NaN, 0.03112983, "- N/A -   "
38.05, 1579.924, 0.06355707, NaN, NaN, NaN, 0.0299091, "- N/A -   "
38.17, 1585.29, 0.063757, NaN, NaN, NaN, 0.03112983, "- N/A -   "
38.29, 1590.06, 0.0639292, NaN, NaN, NaN, 0.04211683, "- N/A -   "
38.41, 1595.55, 0.0641263, NaN, NaN, NaN, 0.0433376, "- N/A -   "
38.53, 1601.15, 0.0643262, NaN, NaN, NaN, 0.0433376, "- N/A -   "
38.65, 1607.71, 0.0645567, NaN, NaN, NaN, 0.0299091, "- N/A -   "
38.77, 1613.2, 0.06475663, NaN, NaN, NaN, 0.03112983, "- N/A -   "
38.89, 1618.323, 0.06494267, NaN, NaN, NaN, 0.03601294, "- N/A -   "
39.01, 1623.69, 0.06513704, NaN, NaN, NaN, 0.0384545, "- N/A -   "
39.13, 1628.94, 0.0653231, NaN, NaN, NaN, 0.0445584, "- N/A -   "
39.25, 1635.5, 0.06555355, NaN, NaN, NaN, 0.03112983, "- N/A -   "
39.37, 1640.86, 0.0657507, NaN, NaN, NaN, 0.0335714, "- N/A -   "
39.49, 1646.35, 0.06594785, NaN, NaN, NaN, 0.0335714, "- N/A -   "
39.61, 1651.952, 0.066145, NaN, NaN, NaN, 0.03601294, "- N/A -   "
39.73, 1656.84, 0.06633105, NaN, NaN, NaN, 0.04089605, "- N/A -   "
39.85, 1662.57, 0.06653375, NaN, NaN, NaN, 0.04089605, "- N/A -   "
39.97, 1668.29, 0.06673923, NaN, NaN, NaN, 0.0384545, "- N/A -   "
40.09, 1674.01, 0.06694749, NaN, NaN, NaN, 0.03601294, "- N/A -   "
40.21, 1679.62, 0.06715019, NaN, NaN, NaN, 0.0335714, "- N/A -   "
40.33, 1685.22, 0.06735289, NaN, NaN, NaN, 0.0335714, "- N/A -   "
40.45, 1690.23, 0.06753616, NaN, NaN, NaN, 0.0396753, "- N/A -   "
40.57, 1695.6, 0.06773053, NaN, NaN, NaN, 0.0433376, "- N/A -   "
40.69, 1701.92, 0.06795267, NaN, NaN, NaN, 0.0323506, "- N/A -   "
40.81, 1707.285, 0.0681526, NaN, NaN, NaN, 0.0323506, "- N/A -   "
40.93, 1713.13, 0.06836085, NaN, NaN, NaN, 0.0286883, "- N/A -   "
41.05, 1718.02, 0.06854134, NaN, NaN, NaN, 0.0372337, "- N/A -   "
41.17, 1722.79, 0.06871905, NaN, NaN, NaN, 0.04699994, "- N/A -   "
41.29, 1728.75, 0.06893564, NaN, NaN, NaN, 0.04089605, "- N/A -   "
41.41, 1734.59, 0.06914667, NaN, NaN, NaN, 0.03601294, "- N/A -   "
41.53, 1740.32, 0.06935771, NaN, NaN, NaN, 0.03112983, "- N/A -   "
41.65, 1745.92, 0.06956041, NaN, NaN, NaN, 0.0286883, "- N/A -   "
41.77, 1749.977, 0.06971869, NaN, NaN, NaN, 0.04699994, "- N/A -   "
41.89, 1755.46, 0.06992138, NaN, NaN, NaN, 0.04577916, "- N/A -   "
42.01, 1761.306, 0.07013242, NaN, NaN, NaN, 0.04211683, "- N/A -   "
42.13, 1767.98, 0.07036845, NaN, NaN, NaN, 0.0262467, "- N/A -   "
42.25, 1772.87, 0.07055171, NaN, NaN, NaN, 0.0323506, "- N/A -   "
42.37, 1778.12, 0.07074331, NaN, NaN, NaN, 0.03601294, "- N/A -   "
42.49, 1783.01, 0.0709238, NaN, NaN, NaN, 0.0445584, "- N/A -   "
42.61, 1788.734, 0.07113483, NaN, NaN, NaN, 0.0396753, "- N/A -   "
42.73, 1794.94, 0.07135697, NaN, NaN, NaN, 0.0299091, "- N/A -   "
42.85, 1799.71, 0.07153746, NaN, NaN, NaN, 0.0384545, "- N/A -   "
42.97, 1805.55, 0.0717485, NaN, NaN, NaN, 0.0347922, "- N/A -   "
43.09, 1810.91, 0.0719429, NaN, NaN, NaN, 0.03601294, "- N/A -   "
43.21, 1816.16, 0.07213446, NaN, NaN, NaN, 0.0396753, "- N/A -   "
43.33, 1821.89, 0.0723427, NaN, NaN, NaN, 0.03601294, "- N/A -   "
43.45, 1827.37, 0.07254542, NaN, NaN, NaN, 0.0347922, "- N/A -   "
43.57, 1833.1, 0.0727537, NaN, NaN, NaN, 0.0323506, "- N/A -   "
43.69, 1838.34, 0.072948, NaN, NaN, NaN, 0.0335714, "- N/A -   "
43.81, 1843.47, 0.0731369, NaN, NaN, NaN, 0.0384545, "- N/A -   "
43.93, 1848.48, 0.07332291, NaN, NaN, NaN, 0.0445584, "- N/A -   "
44.05, 1854.32, 0.07353394, NaN, NaN, NaN, 0.0396753, "- N/A -   "
44.17, 1860.166, 0.073745, NaN, NaN, NaN, 0.0347922, "- N/A -   "
44.29, 1865.89, 0.073956, NaN, NaN, NaN, 0.03112983, "- N/A -   "
44.364, 1869.47, 0.07408096, NaN, NaN, NaN, 0.0299091, "- N/A -   "