File: 2_Tensile_Data/Hamel_ForceTest_Bolt3_Test9.csv
Time, Load (lb), Position (in), AxialStrain (in), TransverseStrain (in), Auxiliary (), Control Out (V), Stress (psi)
0.0, 11.4409, 0.0, NaN, NaN, NaN, -0.006714277, "- N/A -   "
0.01, 11.4409, 2.776752E-6, NaN, NaN, NaN, -6.103888E-4, "- N/A -   "
0.02, 11.4409, 2.776752E-6, NaN, NaN, NaN, 0.006714277, "- N/A -   "
0.03, 11.4409, 2.776752E-6, NaN, NaN, NaN, 0.0250259, "- N/A -   "
0.04, 11.5589, 8.330256E-6, NaN, NaN, NaN, 0.04211683, "- N/A -   "
0.05, 11.5589, 1.94373e-05, NaN, NaN, NaN, 0.05676616, "- N/A -   "
0.06, 11.9127, 3.3321e-05, NaN, NaN, NaN, 0.0701947, "- N/A -   "
0.07, 12.14859, 5.5535e-05, NaN, NaN, NaN, 0.0799609, "- N/A -   "
0.08, 12.5024, 8.05258E-5, NaN, NaN, NaN, 0.0897272, "- N/A -   "
0.09, 12.8563, 0.000108293, NaN, NaN, NaN, 0.09705182, "- N/A -   "
0.1, 13.3281, 1.388376E-4, NaN, NaN, NaN, 0.100714, "- N/A -   "
0.11, 13.6819, 0.000172159, NaN, NaN, NaN, 0.09338949, "- N/A -   "
0.12, 14.0357, 0.000199926, NaN, NaN, NaN, 0.0872856, "- N/A -   "
0.13, 14.5075, 0.000227694, NaN, NaN, NaN, 0.08240249, "- N/A -   "
0.14, 14.8614, 2.526844E-4, NaN, NaN, NaN, 0.07874016, "- N/A -   "
0.15, 15.0973, 0.000280452, NaN, NaN, NaN, 0.0750778, "- N/A -   "
0.16, 15.4511, 2.998892E-4, NaN, NaN, NaN, 0.07263627, "- N/A -   "
0.17, 15.687, 3.221032E-4, NaN, NaN, NaN, 0.07141549, "- N/A -   "
0.18, 16.0409, 0.00034154, NaN, NaN, NaN, 0.0689739, "- N/A -   "
0.19, 16.1588, 0.000360978, NaN, NaN, NaN, 0.0689739, "- N/A -   "
0.2, 16.5126, 3.80415E-4, NaN, NaN, NaN, 0.06775316, "- N/A -   "
0.21, 16.6306, 0.000397076, NaN, NaN, NaN, 0.06653238, "- N/A -   "
0.22, 16.9844, 0.000416513, NaN, NaN, NaN, 0.0653116, "- N/A -   "
0.23, 17.2203, 0.00043595, NaN, NaN, NaN, 0.0653116, "- N/A -   "
0.24, 17.4562, 0.000452611, NaN, NaN, NaN, 0.0640908, "- N/A -   "
0.25, 17.6921, 4.720478E-4, NaN, NaN, NaN, 0.06287005, "- N/A -   "
0.26, 17.928, 0.000491485, NaN, NaN, NaN, 0.06287005, "- N/A -   "
0.27, 18.2819, 0.000510922, NaN, NaN, NaN, 0.0604285, "- N/A -   "
0.28, 18.3998, 0.00053036, NaN, NaN, NaN, 0.0592077, "- N/A -   "
0.29, 18.7536, 0.000549797, NaN, NaN, NaN, 0.0579869, "- N/A -   "
0.3, 18.9895, 5.720109E-4, NaN, NaN, NaN, 0.05676616, "- N/A -   "
0.31, 19.3434, 0.000591448, NaN, NaN, NaN, 0.0543246, "- N/A -   "
0.32, 19.6972, 6.136621E-4, NaN, NaN, NaN, 0.05188305, "- N/A -   "
0.33, 20.05107, 0.000635876, NaN, NaN, NaN, 0.05066227, "- N/A -   "
0.34, 20.287, 0.000655313, NaN, NaN, NaN, 0.0482207, "- N/A -   "
0.35, 20.6408, 6.747507E-4, NaN, NaN, NaN, 0.04699994, "- N/A -   "
0.36, 20.8767, 0.000694188, NaN, NaN, NaN, 0.04577916, "- N/A -   "
0.37, 21.1126, 7.136252E-4, NaN, NaN, NaN, 0.04577916, "- N/A -   "
0.38, 21.46644, 7.302857E-4, NaN, NaN, NaN, 0.0445584, "- N/A -   "
0.39, 21.7023, 0.0007525, NaN, NaN, NaN, 0.0433376, "- N/A -   "
0.4, 22.0562, 7.71937E-4, NaN, NaN, NaN, 0.04089605, "- N/A -   "
0.41, 22.29207, 7.885975E-4, NaN, NaN, NaN, 0.04089605, "- N/A -   "
0.42, 22.528, 8.080348E-4, NaN, NaN, NaN, 0.0396753, "- N/A -   "
0.43, 22.7639, 8.27472E-4, NaN, NaN, NaN, 0.0384545, "- N/A -   "
0.44, 23.1177, 0.000844133, NaN, NaN, NaN, 0.0384545, "- N/A -   "
0.48, 24.29718, 0.000913551, NaN, NaN, NaN, 0.0372337, "- N/A -   "
0.52, 25.4767, 9.885236E-4, NaN, NaN, NaN, 0.0335714, "- N/A -   "
0.56, 26.7741, 0.00106072, NaN, NaN, NaN, 0.03112983, "- N/A -   "
0.6, 27.8356, 0.00112736, NaN, NaN, NaN, 0.03112983, "- N/A -   "
0.64, 28.89713, 0.001194, NaN, NaN, NaN, 0.03112983, "- N/A -   "
0.68, 30.0766, 0.00126065, NaN, NaN, NaN, 0.03112983, "- N/A -   "
0.72, 31.1381, 0.00132173, NaN, NaN, NaN, 0.0335714, "- N/A -   "
0.76, 32.1997, 0.00138005, NaN, NaN, NaN, 0.0372337, "- N/A -   "
0.8, 33.2612, 0.00143836, NaN, NaN, NaN, 0.04089605, "- N/A -   "
0.84, 34.3227, 0.001505, NaN, NaN, NaN, 0.04211683, "- N/A -   "
0.88, 35.6201, 0.00156886, NaN, NaN, NaN, 0.0433376, "- N/A -   "
0.92, 36.6817, 0.00162995, NaN, NaN, NaN, 0.04577916, "- N/A -   "
0.96, 37.8611, 0.0016966, NaN, NaN, NaN, 0.04577916, "- N/A -   "
1, 39.15856, 0.00176324, NaN, NaN, NaN, 0.0445584, "- N/A -   "
1.04, 40.456, 0.00184099, NaN, NaN, NaN, 0.04089605, "- N/A -   "
1.08, 41.8714, 0.00191596, NaN, NaN, NaN, 0.03601294, "- N/A -   "
1.12, 43.40467, 0.00199371, NaN, NaN, NaN, 0.03112983, "- N/A -   "
1.16, 44.70209, 0.00206313, NaN, NaN, NaN, 0.03112983, "- N/A -   "
1.2, 45.9995, 0.00213255, NaN, NaN, NaN, 0.0286883, "- N/A -   "
1.24, 47.2969, 0.00220196, NaN, NaN, NaN, 0.0274675, "- N/A -   "
1.28, 48.47641, 0.00226583, NaN, NaN, NaN, 0.0286883, "- N/A -   "
1.32, 49.6559, 0.00232414, NaN, NaN, NaN, 0.0335714, "- N/A -   "
1.36, 50.7174, 0.00238523, NaN, NaN, NaN, 0.0347922, "- N/A -   "
1.4, 52.01483, 0.002449095, NaN, NaN, NaN, 0.03601294, "- N/A -   "
1.44, 53.19431, 0.00251574, NaN, NaN, NaN, 0.03601294, "- N/A -   "
1.48, 54.3738, 0.00257683, NaN, NaN, NaN, 0.0384545, "- N/A -   "
1.52, 55.55326, 0.00263791, NaN, NaN, NaN, 0.04089605, "- N/A -   "
1.56, 56.85068, 0.002699, NaN, NaN, NaN, 0.0433376, "- N/A -   "
1.6, 57.91221, 0.00276009, NaN, NaN, NaN, 0.04699994, "- N/A -   "
1.64, 59.3276, 0.00282673, NaN, NaN, NaN, 0.04699994, "- N/A -   "
1.68, 60.7429, 0.00290448, NaN, NaN, NaN, 0.04211683, "- N/A -   "
1.72, 62.3942, 0.00298223, NaN, NaN, NaN, 0.0372337, "- N/A -   "
1.76, 63.80958, 0.00305165, NaN, NaN, NaN, 0.0347922, "- N/A -   "
1.8, 65.22495, 0.003123846, NaN, NaN, NaN, 0.0335714, "- N/A -   "
1.84, 66.40443, 0.00318216, NaN, NaN, NaN, 0.03601294, "- N/A -   "
1.88, 67.5839, 0.003246023, NaN, NaN, NaN, 0.0372337, "- N/A -   "
1.92, 69.11722, 0.00331544, NaN, NaN, NaN, 0.0372337, "- N/A -   "
1.96, 70.41464, 0.00338208, NaN, NaN, NaN, 0.03601294, "- N/A -   "
2, 71.83001, 0.00345428, NaN, NaN, NaN, 0.0347922, "- N/A -   "
2.04, 73.36333, 0.003523698, NaN, NaN, NaN, 0.0323506, "- N/A -   "
2.08, 74.66075, 0.00359034, NaN, NaN, NaN, 0.0323506, "- N/A -   "
2.12, 75.95817, 0.00364865, NaN, NaN, NaN, 0.03601294, "- N/A -   "
2.16, 77.13765, 0.00370974, NaN, NaN, NaN, 0.0384545, "- N/A -   "
2.2, 78.4351, 0.003773606, NaN, NaN, NaN, 0.04089605, "- N/A -   "
2.24, 79.96838, 0.00384302, NaN, NaN, NaN, 0.0384545, "- N/A -   "
2.28, 81.14786, 0.00390967, NaN, NaN, NaN, 0.0396753, "- N/A -   "
2.32, 82.44528, 0.00397076, NaN, NaN, NaN, 0.04089605, "- N/A -   "
2.36, 84.09654, 0.00404295, NaN, NaN, NaN, 0.0384545, "- N/A -   "
2.4, 85.51192, 0.004115146, NaN, NaN, NaN, 0.03601294, "- N/A -   "
2.44, 86.92729, 0.004184565, NaN, NaN, NaN, 0.0347922, "- N/A -   "
2.48, 88.22471, 0.00424843, NaN, NaN, NaN, 0.03601294, "- N/A -   "
2.52, 89.6401, 0.00431785, NaN, NaN, NaN, 0.03601294, "- N/A -   "
2.56, 91.1734, 0.00439004, NaN, NaN, NaN, 0.0335714, "- N/A -   "
2.6, 92.70671, 0.00445946, NaN, NaN, NaN, 0.0323506, "- N/A -   "
2.64, 94.0041, 0.004523329, NaN, NaN, NaN, 0.0323506, "- N/A -   "
2.68, 95.30156, 0.004587194, NaN, NaN, NaN, 0.0335714, "- N/A -   "
2.72, 96.71693, 0.004656613, NaN, NaN, NaN, 0.0335714, "- N/A -   "
2.76, 98.13229, 0.004723255, NaN, NaN, NaN, 0.0323506, "- N/A -   "
2.8, 99.54767, 0.0047899, NaN, NaN, NaN, 0.0323506, "- N/A -   "
2.84, 100.727, 0.00485099, NaN, NaN, NaN, 0.0347922, "- N/A -   "
2.88, 101.907, 0.004909297, NaN, NaN, NaN, 0.0384545, "- N/A -   "
2.92, 103.086, 0.004970386, NaN, NaN, NaN, 0.04089605, "- N/A -   "
2.96, 104.501, 0.005034251, NaN, NaN, NaN, 0.04211683, "- N/A -   "
3, 105.563, 0.005092563, NaN, NaN, NaN, 0.04577916, "- N/A -   "
3.04, 107.214, 0.00516198, NaN, NaN, NaN, 0.0445584, "- N/A -   "
3.08, 108.394, 0.0052314, NaN, NaN, NaN, 0.0433376, "- N/A -   "
3.12, 110.045, 0.00530915, NaN, NaN, NaN, 0.0384545, "- N/A -   "
3.16, 111.696, 0.0053869, NaN, NaN, NaN, 0.0347922, "- N/A -   "
3.2, 112.994, 0.00544799, NaN, NaN, NaN, 0.03601294, "- N/A -   "
3.24, 114.2911, 0.005517406, NaN, NaN, NaN, 0.03601294, "- N/A -   "
3.28, 115.706, 0.00558127, NaN, NaN, NaN, 0.03601294, "- N/A -   "
3.32, 117.004, 0.00564791, NaN, NaN, NaN, 0.03601294, "- N/A -   "
3.36, 118.655, 0.00572566, NaN, NaN, NaN, 0.0323506, "- N/A -   "
3.4, 120.071, 0.00579508, NaN, NaN, NaN, 0.0299091, "- N/A -   "
3.44, 121.486, 0.005861723, NaN, NaN, NaN, 0.0299091, "- N/A -   "
3.48, 122.783, 0.005925589, NaN, NaN, NaN, 0.03112983, "- N/A -   "
3.52, 123.845, 0.00598112, NaN, NaN, NaN, 0.03601294, "- N/A -   "
3.56, 124.906, 0.006036659, NaN, NaN, NaN, 0.04089605, "- N/A -   "
3.6, 126.204, 0.006097747, NaN, NaN, NaN, 0.0433376, "- N/A -   "
3.64, 127.501, 0.00615884, NaN, NaN, NaN, 0.04699994, "- N/A -   "
3.68, 128.799, 0.006225478, NaN, NaN, NaN, 0.04699994, "- N/A -   "
3.72, 130.4499, 0.00630045, NaN, NaN, NaN, 0.0433376, "- N/A -   "
3.76, 132.337, 0.006380976, NaN, NaN, NaN, 0.0372337, "- N/A -   "
3.8, 133.634, 0.006450394, NaN, NaN, NaN, 0.03601294, "- N/A -   "
3.84, 135.05, 0.00652259, NaN, NaN, NaN, 0.0347922, "- N/A -   "
3.88, 136.465, 0.00658646, NaN, NaN, NaN, 0.0347922, "- N/A -   "
3.92, 137.8806, 0.006658651, NaN, NaN, NaN, 0.0323506, "- N/A -   "
3.96, 139.532, 0.00673362, NaN, NaN, NaN, 0.0286883, "- N/A -   "
4, 140.947, 0.00680304, NaN, NaN, NaN, 0.0274675, "- N/A -   "
4.04, 142.3626, 0.00686968, NaN, NaN, NaN, 0.0274675, "- N/A -   "
4.08, 143.542, 0.00693077, NaN, NaN, NaN, 0.0299091, "- N/A -   "
4.12, 144.722, 0.00699186, NaN, NaN, NaN, 0.0335714, "- N/A -   "
4.16, 145.901, 0.007047396, NaN, NaN, NaN, 0.0372337, "- N/A -   "
4.2, 146.963, 0.007105708, NaN, NaN, NaN, 0.04089605, "- N/A -   "
4.24, 148.26, 0.0071668, NaN, NaN, NaN, 0.0445584, "- N/A -   "
4.28, 149.557, 0.00722511, NaN, NaN, NaN, 0.04699994, "- N/A -   "
4.32, 151.091, 0.00729453, NaN, NaN, NaN, 0.04699994, "- N/A -   "
4.36, 152.624, 0.00736395, NaN, NaN, NaN, 0.0445584, "- N/A -   "
4.4, 154.0394, 0.00743336, NaN, NaN, NaN, 0.0445584, "- N/A -   "
4.44, 155.573, 0.00750556, NaN, NaN, NaN, 0.04211683, "- N/A -   "
4.48, 157.224, 0.00758331, NaN, NaN, NaN, 0.0372337, "- N/A -   "
4.52, 158.875, 0.007658282, NaN, NaN, NaN, 0.0323506, "- N/A -   "
4.56, 160.2906, 0.0077277, NaN, NaN, NaN, 0.03112983, "- N/A -   "
4.6, 161.588, 0.007794343, NaN, NaN, NaN, 0.03112983, "- N/A -   "
4.64, 162.885, 0.007855431, NaN, NaN, NaN, 0.0335714, "- N/A -   "
4.68, 164.065, 0.007922073, NaN, NaN, NaN, 0.0335714, "- N/A -   "
4.72, 165.598, 0.007983162, NaN, NaN, NaN, 0.0372337, "- N/A -   "
4.76, 166.778, 0.008047027, NaN, NaN, NaN, 0.0372337, "- N/A -   "
4.8, 168.311, 0.008113669, NaN, NaN, NaN, 0.0372337, "- N/A -   "
4.84, 169.608, 0.008183088, NaN, NaN, NaN, 0.03601294, "- N/A -   "
4.88, 171.024, 0.008244176, NaN, NaN, NaN, 0.0384545, "- N/A -   "
4.92, 172.321, 0.008302488, NaN, NaN, NaN, 0.04211683, "- N/A -   "
4.96, 173.501, 0.008366354, NaN, NaN, NaN, 0.0433376, "- N/A -   "
4.99, 174.562, 0.008416335, NaN, NaN, NaN, 0.0445584, "- N/A -   "
5, 174.798, 0.008433, NaN, NaN, NaN, 0.0445584, "- N/A -   "
5.01, 175.27, 0.008449656, NaN, NaN, NaN, 0.0433376, "- N/A -   "
5.02, 175.624, 0.008463539, NaN, NaN, NaN, 0.0445584, "- N/A -   "
5.03, 175.86, 0.008482977, NaN, NaN, NaN, 0.0445584, "- N/A -   "
5.04, 176.449, 0.008499637, NaN, NaN, NaN, 0.0433376, "- N/A -   "
5.05, 176.6853, 0.008519075, NaN, NaN, NaN, 0.04211683, "- N/A -   "
5.06, 177.1571, 0.00853851, NaN, NaN, NaN, 0.04089605, "- N/A -   "
5.07, 177.629, 0.008560726, NaN, NaN, NaN, 0.0396753, "- N/A -   "
5.08, 178.1007, 0.008580163, NaN, NaN, NaN, 0.0384545, "- N/A -   "
5.09, 178.455, 0.008599601, NaN, NaN, NaN, 0.03601294, "- N/A -   "
5.1, 178.926, 0.008616261, NaN, NaN, NaN, 0.03601294, "- N/A -   "
5.11, 179.28, 0.008635699, NaN, NaN, NaN, 0.0347922, "- N/A -   "
5.12, 179.634, 0.00865514, NaN, NaN, NaN, 0.0347922, "- N/A -   "
5.13, 179.988, 0.008671796, NaN, NaN, NaN, 0.0335714, "- N/A -   "
5.14, 180.342, 0.008694011, NaN, NaN, NaN, 0.0323506, "- N/A -   "
5.15, 180.931, 0.00871345, NaN, NaN, NaN, 0.03112983, "- N/A -   "
5.16, 181.167, 0.008730108, NaN, NaN, NaN, 0.0299091, "- N/A -   "
5.17, 181.521, 0.008752322, NaN, NaN, NaN, 0.0286883, "- N/A -   "
5.18, 181.993, 0.008768982, NaN, NaN, NaN, 0.0274675, "- N/A -   "
5.19, 182.465, 0.00878842, NaN, NaN, NaN, 0.0274675, "- N/A -   "
5.2, 182.701, 0.00880508, NaN, NaN, NaN, 0.0262467, "- N/A -   "
5.21, 183.172, 0.008821741, NaN, NaN, NaN, 0.0262467, "- N/A -   "
5.22, 183.408, 0.008838401, NaN, NaN, NaN, 0.0262467, "- N/A -   "
5.23, 183.762, 0.008852284, NaN, NaN, NaN, 0.0274675, "- N/A -   "
5.24, 183.998, 0.008866169, NaN, NaN, NaN, 0.0286883, "- N/A -   "
5.25, 184.234, 0.008880053, NaN, NaN, NaN, 0.0299091, "- N/A -   "
5.26, 184.5878, 0.008893937, NaN, NaN, NaN, 0.03112983, "- N/A -   "
5.27, 184.824, 0.00890782, NaN, NaN, NaN, 0.0323506, "- N/A -   "
5.28, 185.06, 0.008921703, NaN, NaN, NaN, 0.0335714, "- N/A -   "
5.29, 185.295, 0.00893559, NaN, NaN, NaN, 0.0347922, "- N/A -   "
5.3, 185.531, 0.008949472, NaN, NaN, NaN, 0.03601294, "- N/A -   "
5.31, 185.885, 0.008966132, NaN, NaN, NaN, 0.03601294, "- N/A -   "
5.32, 186.239, 0.008980015, NaN, NaN, NaN, 0.0372337, "- N/A -   "
5.33, 186.593, 0.008999453, NaN, NaN, NaN, 0.03601294, "- N/A -   "
5.34, 187.065, 0.009016113, NaN, NaN, NaN, 0.0372337, "- N/A -   "
5.35, 187.301, 0.009032774, NaN, NaN, NaN, 0.0372337, "- N/A -   "
5.36, 187.654, 0.009049434, NaN, NaN, NaN, 0.0372337, "- N/A -   "
5.37, 188.008, 0.009066095, NaN, NaN, NaN, 0.03601294, "- N/A -   "
5.38, 188.3621, 0.009085532, NaN, NaN, NaN, 0.03601294, "- N/A -   "
5.39, 188.834, 0.00910497, NaN, NaN, NaN, 0.0347922, "- N/A -   "
5.4, 189.188, 0.009121629, NaN, NaN, NaN, 0.0335714, "- N/A -   "
5.41, 189.5416, 0.009138291, NaN, NaN, NaN, 0.0335714, "- N/A -   "
5.42, 189.895, 0.00915773, NaN, NaN, NaN, 0.0323506, "- N/A -   "
5.43, 190.249, 0.009174388, NaN, NaN, NaN, 0.0323506, "- N/A -   "
5.44, 190.603, 0.009193826, NaN, NaN, NaN, 0.0323506, "- N/A -   "
5.45, 190.957, 0.009210486, NaN, NaN, NaN, 0.0323506, "- N/A -   "
5.46, 191.193, 0.00922437, NaN, NaN, NaN, 0.0323506, "- N/A -   "
5.47, 191.547, 0.00924103, NaN, NaN, NaN, 0.0323506, "- N/A -   "
5.48, 191.7826, 0.009257691, NaN, NaN, NaN, 0.0323506, "- N/A -   "
5.49, 192.136, 0.009271575, NaN, NaN, NaN, 0.0335714, "- N/A -   "
5.5, 192.49, 0.009285458, NaN, NaN, NaN, 0.0347922, "- N/A -   "
5.51, 192.726, 0.009302119, NaN, NaN, NaN, 0.03601294, "- N/A -   "
5.52, 193.08, 0.009316003, NaN, NaN, NaN, 0.03601294, "- N/A -   "
5.53, 193.3159, 0.009332663, NaN, NaN, NaN, 0.0372337, "- N/A -   "
5.54, 193.67, 0.009346547, NaN, NaN, NaN, 0.0372337, "- N/A -   "
5.55, 193.906, 0.009363207, NaN, NaN, NaN, 0.0384545, "- N/A -   "
5.56, 194.259, 0.009377091, NaN, NaN, NaN, 0.0384545, "- N/A -   "
5.57, 194.495, 0.009390975, NaN, NaN, NaN, 0.0396753, "- N/A -   "
5.58, 194.731, 0.009404859, NaN, NaN, NaN, 0.04089605, "- N/A -   "
5.59, 194.967, 0.009418742, NaN, NaN, NaN, 0.04211683, "- N/A -   "
5.6, 195.321, 0.009435403, NaN, NaN, NaN, 0.04211683, "- N/A -   "
5.61, 195.5569, 0.009452064, NaN, NaN, NaN, 0.04211683, "- N/A -   "
5.62, 195.911, 0.009468724, NaN, NaN, NaN, 0.04211683, "- N/A -   "
5.63, 196.383, 0.009488161, NaN, NaN, NaN, 0.04089605, "- N/A -   "
5.64, 196.618, 0.009504822, NaN, NaN, NaN, 0.04089605, "- N/A -   "
5.65, 196.972, 0.00952148, NaN, NaN, NaN, 0.04089605, "- N/A -   "
5.66, 197.326, 0.009538143, NaN, NaN, NaN, 0.04089605, "- N/A -   "
5.67, 197.68, 0.009554803, NaN, NaN, NaN, 0.04089605, "- N/A -   "
5.68, 198.034, 0.00957424, NaN, NaN, NaN, 0.04089605, "- N/A -   "
5.69, 198.388, 0.009590901, NaN, NaN, NaN, 0.0396753, "- N/A -   "
5.7, 198.741, 0.009607561, NaN, NaN, NaN, 0.0396753, "- N/A -   "
5.71, 198.977, 0.009624222, NaN, NaN, NaN, 0.04089605, "- N/A -   "
5.72, 199.331, 0.00963811, NaN, NaN, NaN, 0.04089605, "- N/A -   "
5.73, 199.567, 0.009657542, NaN, NaN, NaN, 0.0396753, "- N/A -   "
5.74, 200.039, 0.009674203, NaN, NaN, NaN, 0.0396753, "- N/A -   "
5.75, 200.275, 0.009690863, NaN, NaN, NaN, 0.0396753, "- N/A -   "
5.76, 200.629, 0.009707525, NaN, NaN, NaN, 0.0396753, "- N/A -   "
5.77, 200.9825, 0.009726961, NaN, NaN, NaN, 0.0396753, "- N/A -   "
5.78, 201.2184, 0.009743623, NaN, NaN, NaN, 0.0384545, "- N/A -   "
5.79, 201.454, 0.009760284, NaN, NaN, NaN, 0.0384545, "- N/A -   "
5.8, 201.926, 0.009776944, NaN, NaN, NaN, 0.0384545, "- N/A -   "
5.81, 202.28, 0.009793604, NaN, NaN, NaN, 0.0384545, "- N/A -   "
5.82, 202.634, 0.009813041, NaN, NaN, NaN, 0.0372337, "- N/A -   "
5.83, 202.87, 0.009829702, NaN, NaN, NaN, 0.0372337, "- N/A -   "
5.84, 203.2235, 0.00984914, NaN, NaN, NaN, 0.03601294, "- N/A -   "
5.85, 203.695, 0.0098658, NaN, NaN, NaN, 0.03601294, "- N/A -   "
5.86, 203.931, 0.00988246, NaN, NaN, NaN, 0.03601294, "- N/A -   "
5.87, 204.167, 0.009899121, NaN, NaN, NaN, 0.0372337, "- N/A -   "
5.88, 204.521, 0.009913003, NaN, NaN, NaN, 0.0372337, "- N/A -   "
5.89, 204.7568, 0.009932441, NaN, NaN, NaN, 0.0372337, "- N/A -   "
5.9, 205.111, 0.009949101, NaN, NaN, NaN, 0.0372337, "- N/A -   "
5.91, 205.347, 0.009962986, NaN, NaN, NaN, 0.0372337, "- N/A -   "
5.92, 205.7, 0.009982424, NaN, NaN, NaN, 0.0372337, "- N/A -   "
5.93, 206.054, 0.009999084, NaN, NaN, NaN, 0.03601294, "- N/A -   "
5.94, 206.408, 0.0100157, NaN, NaN, NaN, 0.03601294, "- N/A -   "
5.95, 206.762, 0.0100352, NaN, NaN, NaN, 0.0347922, "- N/A -   "
5.96, 206.9978, 0.0100518, NaN, NaN, NaN, 0.0347922, "- N/A -   "
5.97, 207.352, 0.0100685, NaN, NaN, NaN, 0.0347922, "- N/A -   "
[...]
36.99, 1436.94, 0.06176607, NaN, NaN, NaN, 0.0372337, "- N/A -   "
37, 1437.3, 0.06178, NaN, NaN, NaN, 0.0372337, "- N/A -   "
37.01, 1437.78, 0.0617966, NaN, NaN, NaN, 0.0384545, "- N/A -   "
37.04, 1439.09, 0.06184382, NaN, NaN, NaN, 0.0384545, "- N/A -   "
37.07, 1440.16, 0.06188547, NaN, NaN, NaN, 0.04211683, "- N/A -   "
37.1, 1441.23, 0.06192712, NaN, NaN, NaN, 0.04577916, "- N/A -   "
37.13, 1442.43, 0.06197155, NaN, NaN, NaN, 0.0482207, "- N/A -   "
37.16, 1443.86, 0.06202431, NaN, NaN, NaN, 0.04699994, "- N/A -   "
37.19, 1445.41, 0.0620771, NaN, NaN, NaN, 0.04577916, "- N/A -   "
37.22, 1446.84, 0.0621382, NaN, NaN, NaN, 0.04211683, "- N/A -   "
37.25, 1448.51, 0.0621965, NaN, NaN, NaN, 0.0384545, "- N/A -   "
37.28, 1450.06, 0.062252, NaN, NaN, NaN, 0.03601294, "- N/A -   "
37.31, 1451.37, 0.062302, NaN, NaN, NaN, 0.0347922, "- N/A -   "
37.34, 1452.682, 0.062352, NaN, NaN, NaN, 0.0347922, "- N/A -   "
37.37, 1453.99, 0.0624047, NaN, NaN, NaN, 0.0335714, "- N/A -   "
37.4, 1455.544, 0.0624547, NaN, NaN, NaN, 0.0335714, "- N/A -   "
37.43, 1456.86, 0.06250746, NaN, NaN, NaN, 0.0335714, "- N/A -   "
37.46, 1458.29, 0.062563, NaN, NaN, NaN, 0.0299091, "- N/A -   "
37.49, 1459.84, 0.06261853, NaN, NaN, NaN, 0.0274675, "- N/A -   "
37.52, 1461.15, 0.06266851, NaN, NaN, NaN, 0.0274675, "- N/A -   "
37.55, 1462.34, 0.0627129, NaN, NaN, NaN, 0.0299091, "- N/A -   "
37.58, 1463.3, 0.0627546, NaN, NaN, NaN, 0.0335714, "- N/A -   "
37.61, 1464.49, 0.06279902, NaN, NaN, NaN, 0.0372337, "- N/A -   "
37.64, 1465.44, 0.06284068, NaN, NaN, NaN, 0.0396753, "- N/A -   "
37.67, 1466.63, 0.06288788, NaN, NaN, NaN, 0.04089605, "- N/A -   "
37.7, 1467.71, 0.06292953, NaN, NaN, NaN, 0.04577916, "- N/A -   "
37.73, 1468.9, 0.062974, NaN, NaN, NaN, 0.0482207, "- N/A -   "
37.76, 1470.09, 0.06302116, NaN, NaN, NaN, 0.0482207, "- N/A -   "
37.79, 1471.64, 0.06307392, NaN, NaN, NaN, 0.0482207, "- N/A -   "
37.82, 1473.19, 0.0631295, NaN, NaN, NaN, 0.0445584, "- N/A -   "
37.85, 1474.74, 0.06318777, NaN, NaN, NaN, 0.04089605, "- N/A -   "
37.88, 1476.41, 0.06324886, NaN, NaN, NaN, 0.03601294, "- N/A -   "
37.91, 1477.84, 0.06330439, NaN, NaN, NaN, 0.0347922, "- N/A -   "
37.94, 1479.28, 0.06335437, NaN, NaN, NaN, 0.0335714, "- N/A -   "
37.97, 1480.587, 0.06340435, NaN, NaN, NaN, 0.0335714, "- N/A -   "
38, 1481.9, 0.06345711, NaN, NaN, NaN, 0.0323506, "- N/A -   "
38.03, 1483.33, 0.0635099, NaN, NaN, NaN, 0.03112983, "- N/A -   "
38.06, 1484.88, 0.0635654, NaN, NaN, NaN, 0.0299091, "- N/A -   "
38.09, 1486.19, 0.06361539, NaN, NaN, NaN, 0.0286883, "- N/A -   "
38.12, 1487.62, 0.06366815, NaN, NaN, NaN, 0.0286883, "- N/A -   "
38.15, 1488.93, 0.0637181, NaN, NaN, NaN, 0.0274675, "- N/A -   "
38.18, 1490.37, 0.0637681, NaN, NaN, NaN, 0.0274675, "- N/A -   "
38.21, 1491.439, 0.06381532, NaN, NaN, NaN, 0.0286883, "- N/A -   "
38.24, 1492.63, 0.06385974, NaN, NaN, NaN, 0.0323506, "- N/A -   "
38.27, 1493.7, 0.0638986, NaN, NaN, NaN, 0.03601294, "- N/A -   "
38.3, 1494.9, 0.06394304, NaN, NaN, NaN, 0.0396753, "- N/A -   "
38.33, 1495.73, 0.06398191, NaN, NaN, NaN, 0.0433376, "- N/A -   "
38.36, 1497.04, 0.06402913, NaN, NaN, NaN, 0.0445584, "- N/A -   "
38.39, 1498.36, 0.0640791, NaN, NaN, NaN, 0.0445584, "- N/A -   "
38.42, 1499.79, 0.06413186, NaN, NaN, NaN, 0.0433376, "- N/A -   "
38.45, 1500.98, 0.06417629, NaN, NaN, NaN, 0.04577916, "- N/A -   "
38.48, 1502.29, 0.06422628, NaN, NaN, NaN, 0.04577916, "- N/A -   "
38.51, 1503.6, 0.0642763, NaN, NaN, NaN, 0.04699994, "- N/A -   "
38.54, 1505.03, 0.06432901, NaN, NaN, NaN, 0.04577916, "- N/A -   "
38.57, 1506.58, 0.06438733, NaN, NaN, NaN, 0.04089605, "- N/A -   "
38.6, 1508.25, 0.06444841, NaN, NaN, NaN, 0.0372337, "- N/A -   "
38.63, 1510.16, 0.06451228, NaN, NaN, NaN, 0.03112983, "- N/A -   "
38.66, 1511.47, 0.06456781, NaN, NaN, NaN, 0.0286883, "- N/A -   "
38.69, 1512.785, 0.06461502, NaN, NaN, NaN, 0.0286883, "- N/A -   "
38.72, 1514.1, 0.064665, NaN, NaN, NaN, 0.0286883, "- N/A -   "
38.75, 1515.41, 0.0647122, NaN, NaN, NaN, 0.0299091, "- N/A -   "
38.78, 1516.6, 0.06475663, NaN, NaN, NaN, 0.0323506, "- N/A -   "
38.81, 1517.67, 0.06480384, NaN, NaN, NaN, 0.0335714, "- N/A -   "
38.84, 1518.99, 0.06484827, NaN, NaN, NaN, 0.03601294, "- N/A -   "
38.87, 1520.298, 0.0648982, NaN, NaN, NaN, 0.0372337, "- N/A -   "
38.9, 1521.49, 0.06494545, NaN, NaN, NaN, 0.0384545, "- N/A -   "
38.93, 1522.92, 0.06499821, NaN, NaN, NaN, 0.03601294, "- N/A -   "
38.96, 1524.35, 0.06505097, NaN, NaN, NaN, 0.0347922, "- N/A -   "
38.99, 1525.66, 0.0651009, NaN, NaN, NaN, 0.0347922, "- N/A -   "
39.02, 1526.74, 0.0651426, NaN, NaN, NaN, 0.0384545, "- N/A -   "
39.05, 1527.93, 0.06518703, NaN, NaN, NaN, 0.04089605, "- N/A -   "
39.08, 1529.12, 0.06523146, NaN, NaN, NaN, 0.0433376, "- N/A -   "
39.11, 1530.43, 0.06527866, NaN, NaN, NaN, 0.0445584, "- N/A -   "
39.14, 1531.75, 0.06532864, NaN, NaN, NaN, 0.0445584, "- N/A -   "
39.17, 1533.18, 0.06538418, NaN, NaN, NaN, 0.04211683, "- N/A -   "
39.2, 1534.85, 0.06544527, NaN, NaN, NaN, 0.0372337, "- N/A -   "
39.23, 1536.64, 0.06550358, NaN, NaN, NaN, 0.0335714, "- N/A -   "
39.26, 1537.95, 0.06556189, NaN, NaN, NaN, 0.03112983, "- N/A -   "
39.29, 1539.5, 0.06561743, NaN, NaN, NaN, 0.0286883, "- N/A -   "
39.32, 1540.81, 0.0656674, NaN, NaN, NaN, 0.0286883, "- N/A -   "
39.35, 1541.88, 0.06571183, NaN, NaN, NaN, 0.0299091, "- N/A -   "
39.38, 1543.19, 0.06575626, NaN, NaN, NaN, 0.0335714, "- N/A -   "
39.41, 1544.27, 0.06580069, NaN, NaN, NaN, 0.0347922, "- N/A -   "
39.44, 1545.58, 0.0658479, NaN, NaN, NaN, 0.03601294, "- N/A -   "
39.47, 1546.891, 0.06589788, NaN, NaN, NaN, 0.03601294, "- N/A -   "
39.5, 1548.44, 0.06595341, NaN, NaN, NaN, 0.0335714, "- N/A -   "
39.53, 1549.99, 0.06600617, NaN, NaN, NaN, 0.0323506, "- N/A -   "
39.56, 1551.3, 0.0660589, NaN, NaN, NaN, 0.03112983, "- N/A -   "
39.59, 1552.5, 0.06610613, NaN, NaN, NaN, 0.0323506, "- N/A -   "
39.62, 1553.81, 0.06615334, NaN, NaN, NaN, 0.0335714, "- N/A -   "
39.65, 1555, 0.06619777, NaN, NaN, NaN, 0.0372337, "- N/A -   "
39.68, 1556.19, 0.06624497, NaN, NaN, NaN, 0.0372337, "- N/A -   "
39.71, 1557.266, 0.0662894, NaN, NaN, NaN, 0.0396753, "- N/A -   "
39.74, 1558.58, 0.0663366, NaN, NaN, NaN, 0.04089605, "- N/A -   "
39.77, 1559.89, 0.06638936, NaN, NaN, NaN, 0.0396753, "- N/A -   "
39.8, 1561.2, 0.0664393, NaN, NaN, NaN, 0.0396753, "- N/A -   "
39.83, 1562.63, 0.0664893, NaN, NaN, NaN, 0.04089605, "- N/A -   "
39.86, 1563.82, 0.06653653, NaN, NaN, NaN, 0.04211683, "- N/A -   "
39.89, 1565.14, 0.06658651, NaN, NaN, NaN, 0.0433376, "- N/A -   "
39.92, 1566.69, 0.0666365, NaN, NaN, NaN, 0.04211683, "- N/A -   "
39.95, 1567.88, 0.06668925, NaN, NaN, NaN, 0.04211683, "- N/A -   "
39.98, 1569.31, 0.06674201, NaN, NaN, NaN, 0.0396753, "- N/A -   "
40.01, 1570.74, 0.06679755, NaN, NaN, NaN, 0.0384545, "- N/A -   "
40.04, 1572.17, 0.0668475, NaN, NaN, NaN, 0.0372337, "- N/A -   "
40.07, 1573.6, 0.06690028, NaN, NaN, NaN, 0.03601294, "- N/A -   "
40.1, 1575.03, 0.06695304, NaN, NaN, NaN, 0.03601294, "- N/A -   "
40.13, 1576.227, 0.0669975, NaN, NaN, NaN, 0.0372337, "- N/A -   "
40.16, 1577.54, 0.06705023, NaN, NaN, NaN, 0.03601294, "- N/A -   "
40.19, 1578.97, 0.06710299, NaN, NaN, NaN, 0.0347922, "- N/A -   "
40.22, 1580.28, 0.06715575, NaN, NaN, NaN, 0.0347922, "- N/A -   "
40.25, 1581.59, 0.06720295, NaN, NaN, NaN, 0.0347922, "- N/A -   "
40.28, 1582.91, 0.0672557, NaN, NaN, NaN, 0.0335714, "- N/A -   "
40.31, 1584.34, 0.06730846, NaN, NaN, NaN, 0.0335714, "- N/A -   "
40.34, 1585.77, 0.06735845, NaN, NaN, NaN, 0.0323506, "- N/A -   "
40.37, 1586.84, 0.06740288, NaN, NaN, NaN, 0.0347922, "- N/A -   "
40.4, 1587.91, 0.0674473, NaN, NaN, NaN, 0.0384545, "- N/A -   "
40.43, 1589.23, 0.06749451, NaN, NaN, NaN, 0.0396753, "- N/A -   "
40.46, 1590.42, 0.06753894, NaN, NaN, NaN, 0.04089605, "- N/A -   "
40.49, 1591.49, 0.06758337, NaN, NaN, NaN, 0.0433376, "- N/A -   "
40.52, 1592.68, 0.06763057, NaN, NaN, NaN, 0.0445584, "- N/A -   "
40.55, 1594, 0.06767777, NaN, NaN, NaN, 0.04577916, "- N/A -   "
40.58, 1595.55, 0.06773053, NaN, NaN, NaN, 0.0445584, "- N/A -   "
40.61, 1596.98, 0.06778607, NaN, NaN, NaN, 0.0433376, "- N/A -   "
40.64, 1598.65, 0.0678472, NaN, NaN, NaN, 0.0372337, "- N/A -   "
40.67, 1600.2, 0.06790547, NaN, NaN, NaN, 0.0335714, "- N/A -   "
40.7, 1601.747, 0.06795823, NaN, NaN, NaN, 0.0323506, "- N/A -   "
40.73, 1602.94, 0.06800821, NaN, NaN, NaN, 0.0323506, "- N/A -   "
40.76, 1604.132, 0.06805819, NaN, NaN, NaN, 0.0335714, "- N/A -   "
40.772, 1604.73, 0.06807763, NaN, NaN, NaN, 0.0323506, "- N/A -   "