File: 2_Tensile_Data/Hamel_ForceTest_Bolt10_Test3.csv
Time, Load (lb), Position (in), AxialStrain (in), TransverseStrain (in), Auxiliary (), Control Out (V), Stress (psi)
0.0, 1.29742, 0.0, NaN, NaN, NaN, 0.105597, "- N/A -   "
0.01, 1.53332, 2.77675e-05, NaN, NaN, NaN, 0.100714, "- N/A -   "
0.02, 1.88716, 5.5535e-05, NaN, NaN, NaN, 0.095831, "- N/A -   "
0.03, 2.241, 8.05258E-5, NaN, NaN, NaN, 0.09338949, "- N/A -   "
0.04, 2.476897, 0.000105517, NaN, NaN, NaN, 0.0897272, "- N/A -   "
0.05, 2.712792, 0.000127731, NaN, NaN, NaN, 0.08606482, "- N/A -   "
0.06, 3.06663, 0.000152721, NaN, NaN, NaN, 0.08362327, "- N/A -   "
0.07, 3.30253, 0.000174935, NaN, NaN, NaN, 0.08118171, "- N/A -   "
0.08, 3.65637, 0.000197149, NaN, NaN, NaN, 0.07751938, "- N/A -   "
0.09, 4.010214, 0.00022214, NaN, NaN, NaN, 0.07385705, "- N/A -   "
0.1, 4.36406, 0.000244354, NaN, NaN, NaN, 0.07141549, "- N/A -   "
0.11, 4.59995, 0.000269345, NaN, NaN, NaN, 0.06775316, "- N/A -   "
0.12, 4.953794, 0.000291559, NaN, NaN, NaN, 0.0653116, "- N/A -   "
0.13, 5.307636, 3.165497E-4, NaN, NaN, NaN, 0.06164927, "- N/A -   "
0.14, 5.66148, 0.00034154, NaN, NaN, NaN, 0.0592077, "- N/A -   "
0.15, 6.01532, 3.637545E-4, NaN, NaN, NaN, 0.0555454, "- N/A -   "
0.16, 6.369163, 0.000388745, NaN, NaN, NaN, 0.0531038, "- N/A -   "
0.17, 6.60506, 4.081825E-4, NaN, NaN, NaN, 0.05066227, "- N/A -   "
0.18, 6.84095, 4.276198E-4, NaN, NaN, NaN, 0.0494415, "- N/A -   "
0.19, 7.1948, 0.000447057, NaN, NaN, NaN, 0.0482207, "- N/A -   "
0.2, 7.548638, 4.664943E-4, NaN, NaN, NaN, 0.04699994, "- N/A -   "
0.21, 7.784533, 0.000485932, NaN, NaN, NaN, 0.04577916, "- N/A -   "
0.22, 8.138375, 5.081456E-4, NaN, NaN, NaN, 0.0445584, "- N/A -   "
0.23, 8.37427, 5.248061E-4, NaN, NaN, NaN, 0.0433376, "- N/A -   "
0.24, 8.610166, 5.442434E-4, NaN, NaN, NaN, 0.04211683, "- N/A -   "
0.25, 8.728113, 0.000560904, NaN, NaN, NaN, 0.04211683, "- N/A -   "
0.26, 9.081955, 5.831179E-4, NaN, NaN, NaN, 0.04089605, "- N/A -   "
0.27, 9.31785, 0.000602555, NaN, NaN, NaN, 0.0396753, "- N/A -   "
0.28, 9.671693, 6.219924E-4, NaN, NaN, NaN, 0.0384545, "- N/A -   "
0.29, 9.907588, 0.000638653, NaN, NaN, NaN, 0.0372337, "- N/A -   "
0.3, 10.1435, 0.00065809, NaN, NaN, NaN, 0.03601294, "- N/A -   "
0.31, 10.4973, 6.803042E-4, NaN, NaN, NaN, 0.0335714, "- N/A -   "
0.32, 10.73322, 6.997415E-4, NaN, NaN, NaN, 0.0323506, "- N/A -   "
0.33, 10.9691, 7.219555E-4, NaN, NaN, NaN, 0.03112983, "- N/A -   "
0.34, 11.323, 7.38616E-4, NaN, NaN, NaN, 0.0299091, "- N/A -   "
0.35, 11.5589, 0.000758053, NaN, NaN, NaN, 0.0286883, "- N/A -   "
0.36, 11.9127, 0.000774714, NaN, NaN, NaN, 0.0286883, "- N/A -   "
0.37, 12.0306, 0.000791374, NaN, NaN, NaN, 0.0286883, "- N/A -   "
0.38, 12.2665, 8.080348E-4, NaN, NaN, NaN, 0.0286883, "- N/A -   "
0.39, 12.5024, 0.000821919, NaN, NaN, NaN, 0.0299091, "- N/A -   "
0.4, 12.6204, 8.38579E-4, NaN, NaN, NaN, 0.0299091, "- N/A -   "
0.41, 12.9742, 8.552396E-4, NaN, NaN, NaN, 0.0299091, "- N/A -   "
0.47, 14.1537, 0.000949649, NaN, NaN, NaN, 0.0323506, "- N/A -   "
0.53, 15.4511, 0.00103851, NaN, NaN, NaN, 0.0372337, "- N/A -   "
0.59, 16.5126, 0.00112458, NaN, NaN, NaN, 0.0433376, "- N/A -   "
0.65, 18.046, 0.00122177, NaN, NaN, NaN, 0.0445584, "- N/A -   "
0.71, 19.3434, 0.00132173, NaN, NaN, NaN, 0.0445584, "- N/A -   "
0.77, 20.7588, 0.001421697, NaN, NaN, NaN, 0.0445584, "- N/A -   "
0.83, 22.41, 0.00152721, NaN, NaN, NaN, 0.04211683, "- N/A -   "
0.89, 23.9433, 0.00165217, NaN, NaN, NaN, 0.0323506, "- N/A -   "
0.95, 25.4767, 0.00175491, NaN, NaN, NaN, 0.03112983, "- N/A -   "
1.01, 26.7741, 0.00185487, NaN, NaN, NaN, 0.0299091, "- N/A -   "
1.07, 28.1894, 0.00195206, NaN, NaN, NaN, 0.03112983, "- N/A -   "
1.13, 29.4869, 0.00204091, NaN, NaN, NaN, 0.03601294, "- N/A -   "
1.19, 31.0202, 0.00214365, NaN, NaN, NaN, 0.0347922, "- N/A -   "
1.25, 32.3176, 0.002238062, NaN, NaN, NaN, 0.0372337, "- N/A -   "
1.31, 33.3791, 0.00232136, NaN, NaN, NaN, 0.0445584, "- N/A -   "
1.37, 34.9125, 0.00242133, NaN, NaN, NaN, 0.0445584, "- N/A -   "
1.43, 36.5637, 0.00252962, NaN, NaN, NaN, 0.04089605, "- N/A -   "
1.49, 38.097, 0.00264347, NaN, NaN, NaN, 0.0347922, "- N/A -   "
1.55, 39.7483, 0.00275454, NaN, NaN, NaN, 0.0299091, "- N/A -   "
1.61, 41.04572, 0.002854501, NaN, NaN, NaN, 0.03112983, "- N/A -   "
1.67, 42.3431, 0.002943357, NaN, NaN, NaN, 0.0347922, "- N/A -   "
1.73, 43.87646, 0.00304332, NaN, NaN, NaN, 0.0347922, "- N/A -   "
1.79, 45.76362, 0.00315439, NaN, NaN, NaN, 0.03112983, "- N/A -   "
1.85, 47.179, 0.003243246, NaN, NaN, NaN, 0.0347922, "- N/A -   "
1.91, 48.7123, 0.003337656, NaN, NaN, NaN, 0.0372337, "- N/A -   "
1.97, 50.2456, 0.003426512, NaN, NaN, NaN, 0.04211683, "- N/A -   "
2.03, 52.25073, 0.00353481, NaN, NaN, NaN, 0.0384545, "- N/A -   "
2.09, 53.902, 0.00363199, NaN, NaN, NaN, 0.0396753, "- N/A -   "
2.15, 55.9071, 0.00373751, NaN, NaN, NaN, 0.0384545, "- N/A -   "
2.21, 57.6763, 0.00383747, NaN, NaN, NaN, 0.0372337, "- N/A -   "
2.27, 59.4455, 0.00394021, NaN, NaN, NaN, 0.0372337, "- N/A -   "
2.33, 61.2147, 0.0040374, NaN, NaN, NaN, 0.0372337, "- N/A -   "
2.39, 63.2198, 0.00414014, NaN, NaN, NaN, 0.03601294, "- N/A -   "
2.45, 65.107, 0.00424288, NaN, NaN, NaN, 0.0347922, "- N/A -   "
2.51, 66.99416, 0.004345617, NaN, NaN, NaN, 0.0335714, "- N/A -   "
2.57, 68.9993, 0.00444836, NaN, NaN, NaN, 0.0323506, "- N/A -   "
2.63, 70.88643, 0.004542766, NaN, NaN, NaN, 0.0347922, "- N/A -   "
2.69, 72.77359, 0.004634399, NaN, NaN, NaN, 0.0384545, "- N/A -   "
2.75, 74.5428, 0.00472881, NaN, NaN, NaN, 0.04211683, "- N/A -   "
2.81, 76.6659, 0.004825995, NaN, NaN, NaN, 0.04211683, "- N/A -   "
2.87, 78.90686, 0.004934288, NaN, NaN, NaN, 0.0384545, "- N/A -   "
2.93, 81.38376, 0.005050912, NaN, NaN, NaN, 0.0323506, "- N/A -   "
2.99, 83.27091, 0.005145321, NaN, NaN, NaN, 0.0335714, "- N/A -   "
3.05, 85.15807, 0.005239731, NaN, NaN, NaN, 0.03601294, "- N/A -   "
3.11, 87.39908, 0.005350801, NaN, NaN, NaN, 0.0323506, "- N/A -   "
3.17, 89.6401, 0.00545632, NaN, NaN, NaN, 0.0286883, "- N/A -   "
3.23, 91.52724, 0.00555073, NaN, NaN, NaN, 0.03112983, "- N/A -   "
3.29, 93.2965, 0.00564236, NaN, NaN, NaN, 0.0347922, "- N/A -   "
3.35, 95.06567, 0.00573122, NaN, NaN, NaN, 0.04089605, "- N/A -   "
3.41, 96.95282, 0.005820072, NaN, NaN, NaN, 0.0445584, "- N/A -   "
3.47, 98.9579, 0.00592281, NaN, NaN, NaN, 0.0445584, "- N/A -   "
3.53, 101.199, 0.006031105, NaN, NaN, NaN, 0.04211683, "- N/A -   "
3.59, 103.086, 0.006136622, NaN, NaN, NaN, 0.0384545, "- N/A -   "
3.65, 105.209, 0.006244915, NaN, NaN, NaN, 0.0347922, "- N/A -   "
3.71, 107.214, 0.006344878, NaN, NaN, NaN, 0.0347922, "- N/A -   "
3.77, 109.219, 0.00645317, NaN, NaN, NaN, 0.03112983, "- N/A -   "
3.83, 111.107, 0.006555911, NaN, NaN, NaN, 0.03112983, "- N/A -   "
3.89, 112.876, 0.006650321, NaN, NaN, NaN, 0.0323506, "- N/A -   "
3.95, 114.527, 0.0067364, NaN, NaN, NaN, 0.0384545, "- N/A -   "
4.01, 116.06, 0.00682248, NaN, NaN, NaN, 0.0445584, "- N/A -   "
4.07, 117.947, 0.00692244, NaN, NaN, NaN, 0.0445584, "- N/A -   "
4.13, 119.717, 0.00701963, NaN, NaN, NaN, 0.04577916, "- N/A -   "
4.19, 121.84, 0.00712515, NaN, NaN, NaN, 0.0433376, "- N/A -   "
4.25, 123.845, 0.007241769, NaN, NaN, NaN, 0.03601294, "- N/A -   "
4.31, 126.086, 0.00735562, NaN, NaN, NaN, 0.0299091, "- N/A -   "
4.37, 127.973, 0.00746113, NaN, NaN, NaN, 0.0286883, "- N/A -   "
4.43, 129.742, 0.00754999, NaN, NaN, NaN, 0.0323506, "- N/A -   "
4.49, 131.393, 0.00764995, NaN, NaN, NaN, 0.0335714, "- N/A -   "
4.55, 133.045, 0.00774436, NaN, NaN, NaN, 0.0347922, "- N/A -   "
4.61, 134.814, 0.007838771, NaN, NaN, NaN, 0.0372337, "- N/A -   "
4.67, 136.583, 0.007935957, NaN, NaN, NaN, 0.0384545, "- N/A -   "
4.73, 138.234, 0.008030367, NaN, NaN, NaN, 0.04089605, "- N/A -   "
4.79, 139.8857, 0.008121999, NaN, NaN, NaN, 0.0445584, "- N/A -   "
4.85, 141.891, 0.008227516, NaN, NaN, NaN, 0.04211683, "- N/A -   "
4.91, 144.014, 0.008341363, NaN, NaN, NaN, 0.03601294, "- N/A -   "
4.97, 146.019, 0.008452433, NaN, NaN, NaN, 0.03112983, "- N/A -   "
5.03, 147.67, 0.008552396, NaN, NaN, NaN, 0.0323506, "- N/A -   "
5.09, 149.204, 0.008644029, NaN, NaN, NaN, 0.0347922, "- N/A -   "
5.15, 150.973, 0.008741215, NaN, NaN, NaN, 0.0372337, "- N/A -   "
5.21, 152.978, 0.008849508, NaN, NaN, NaN, 0.0335714, "- N/A -   "
5.27, 154.629, 0.008946694, NaN, NaN, NaN, 0.0335714, "- N/A -   "
5.33, 156.2804, 0.009038327, NaN, NaN, NaN, 0.0384545, "- N/A -   "
5.39, 157.814, 0.009124407, NaN, NaN, NaN, 0.0433376, "- N/A -   "
5.45, 159.701, 0.009229924, NaN, NaN, NaN, 0.04089605, "- N/A -   "
5.51, 161.588, 0.009329887, NaN, NaN, NaN, 0.04089605, "- N/A -   "
5.57, 163.475, 0.009438179, NaN, NaN, NaN, 0.0372337, "- N/A -   "
5.63, 165.4803, 0.00954092, NaN, NaN, NaN, 0.03601294, "- N/A -   "
5.69, 167.132, 0.009640883, NaN, NaN, NaN, 0.03601294, "- N/A -   "
5.75, 169.019, 0.009749176, NaN, NaN, NaN, 0.0335714, "- N/A -   "
5.81, 170.788, 0.009849139, NaN, NaN, NaN, 0.0335714, "- N/A -   "
5.87, 172.557, 0.009946326, NaN, NaN, NaN, 0.0335714, "- N/A -   "
5.93, 174.4443, 0.0100518, NaN, NaN, NaN, 0.0323506, "- N/A -   "
5.99, 176.096, 0.0101463, NaN, NaN, NaN, 0.0335714, "- N/A -   "
6.05, 177.747, 0.0102351, NaN, NaN, NaN, 0.0384545, "- N/A -   "
6.11, 179.3981, 0.01033507, NaN, NaN, NaN, 0.0384545, "- N/A -   "
6.17, 181.167, 0.01042948, NaN, NaN, NaN, 0.04089605, "- N/A -   "
6.23, 182.937, 0.01052389, NaN, NaN, NaN, 0.0433376, "- N/A -   "
6.29, 184.824, 0.0106294, NaN, NaN, NaN, 0.04089605, "- N/A -   "
6.35, 186.947, 0.01074603, NaN, NaN, NaN, 0.0335714, "- N/A -   "
6.41, 188.716, 0.0108488, NaN, NaN, NaN, 0.0335714, "- N/A -   "
6.47, 190.485, 0.010946, NaN, NaN, NaN, 0.0347922, "- N/A -   "
6.53, 192.254, 0.0110431, NaN, NaN, NaN, 0.0347922, "- N/A -   "
6.59, 194.377, 0.011157, NaN, NaN, NaN, 0.0286883, "- N/A -   "
6.65, 196.0287, 0.0112514, NaN, NaN, NaN, 0.03112983, "- N/A -   "
6.71, 197.68, 0.0113403, NaN, NaN, NaN, 0.0372337, "- N/A -   "
6.77, 199.095, 0.0114236, NaN, NaN, NaN, 0.0445584, "- N/A -   "
6.83, 200.865, 0.011518, NaN, NaN, NaN, 0.04577916, "- N/A -   "
6.89, 202.7517, 0.01161793, NaN, NaN, NaN, 0.04577916, "- N/A -   "
6.95, 204.9927, 0.01173733, NaN, NaN, NaN, 0.0372337, "- N/A -   "
7.01, 207.116, 0.0118428, NaN, NaN, NaN, 0.0347922, "- N/A -   "
7.07, 208.885, 0.01195114, NaN, NaN, NaN, 0.0323506, "- N/A -   "
7.13, 211.008, 0.0120567, NaN, NaN, NaN, 0.0286883, "- N/A -   "
7.19, 212.777, 0.01215662, NaN, NaN, NaN, 0.0286883, "- N/A -   "
7.25, 214.546, 0.0122566, NaN, NaN, NaN, 0.0299091, "- N/A -   "
7.31, 216.434, 0.012351, NaN, NaN, NaN, 0.03112983, "- N/A -   "
7.37, 217.849, 0.0124371, NaN, NaN, NaN, 0.0372337, "- N/A -   "
7.43, 219.3823, 0.0125232, NaN, NaN, NaN, 0.0445584, "- N/A -   "
7.49, 221.387, 0.0126231, NaN, NaN, NaN, 0.0433376, "- N/A -   "
7.55, 223.3925, 0.0127231, NaN, NaN, NaN, 0.0433376, "- N/A -   "
7.61, 225.28, 0.0128286, NaN, NaN, NaN, 0.04089605, "- N/A -   "
7.67, 227.639, 0.01294244, NaN, NaN, NaN, 0.0347922, "- N/A -   "
7.73, 229.998, 0.0130591, NaN, NaN, NaN, 0.0286883, "- N/A -   "
7.79, 231.649, 0.01315625, NaN, NaN, NaN, 0.0286883, "- N/A -   "
7.85, 233.418, 0.0132534, NaN, NaN, NaN, 0.03112983, "- N/A -   "
7.91, 235.3052, 0.01334507, NaN, NaN, NaN, 0.0347922, "- N/A -   "
7.97, 237.074, 0.0134423, NaN, NaN, NaN, 0.0347922, "- N/A -   "
7.99, 237.7821, 0.0134756, NaN, NaN, NaN, 0.0347922, "- N/A -   "
8, 238.136, 0.013495, NaN, NaN, NaN, 0.0347922, "- N/A -   "
8.01, 238.49, 0.0135117, NaN, NaN, NaN, 0.0347922, "- N/A -   "
8.16, 242.853, 0.0137421, NaN, NaN, NaN, 0.0445584, "- N/A -   "
8.31, 248.156, 0.0140059, NaN, NaN, NaN, 0.0372337, "- N/A -   "
8.46, 253.222, 0.014267, NaN, NaN, NaN, 0.0323506, "- N/A -   "
8.61, 258.053, 0.0145196, NaN, NaN, NaN, 0.0323506, "- N/A -   "
8.76, 262.648, 0.0147473, NaN, NaN, NaN, 0.04089605, "- N/A -   "
8.91, 267.597, 0.0149972, NaN, NaN, NaN, 0.04089605, "- N/A -   "
9.06, 272.899, 0.0152583, NaN, NaN, NaN, 0.03601294, "- N/A -   "
9.21, 278.0835, 0.01551649, NaN, NaN, NaN, 0.0335714, "- N/A -   "
9.36, 283.032, 0.0157608, NaN, NaN, NaN, 0.0347922, "- N/A -   "
9.51, 287.7452, 0.0159969, NaN, NaN, NaN, 0.04089605, "- N/A -   "
9.66, 292.812, 0.0162412, NaN, NaN, NaN, 0.0433376, "- N/A -   "
9.81, 298.5852, 0.0165189, NaN, NaN, NaN, 0.03112983, "- N/A -   "
9.96, 303.652, 0.0167716, NaN, NaN, NaN, 0.0299091, "- N/A -   "
10.11, 308.4826, 0.0170104, NaN, NaN, NaN, 0.0347922, "- N/A -   "
10.26, 312.96, 0.0172353, NaN, NaN, NaN, 0.04577916, "- N/A -   "
10.41, 318.7335, 0.0175102, NaN, NaN, NaN, 0.0347922, "- N/A -   "
10.56, 324.389, 0.0177684, NaN, NaN, NaN, 0.03112983, "- N/A -   "
10.71, 329.338, 0.01801279, NaN, NaN, NaN, 0.0335714, "- N/A -   "
10.86, 333.933, 0.0182433, NaN, NaN, NaN, 0.0433376, "- N/A -   "
11.01, 339.353, 0.0184932, NaN, NaN, NaN, 0.04211683, "- N/A -   "
11.16, 345.362, 0.0187708, NaN, NaN, NaN, 0.0299091, "- N/A -   "
11.31, 350.664, 0.0190235, NaN, NaN, NaN, 0.0286883, "- N/A -   "
11.46, 355.7309, 0.0192623, NaN, NaN, NaN, 0.0335714, "- N/A -   "
11.61, 360.562, 0.0194956, NaN, NaN, NaN, 0.04211683, "- N/A -   "
11.76, 366.453, 0.0197621, NaN, NaN, NaN, 0.0335714, "- N/A -   "
11.91, 371.873, 0.0200093, NaN, NaN, NaN, 0.0347922, "- N/A -   "
12.06, 376.822, 0.0202453, NaN, NaN, NaN, 0.04089605, "- N/A -   "
12.21, 382.124, 0.0204952, NaN, NaN, NaN, 0.04089605, "- N/A -   "
12.36, 388.0152, 0.02075622, NaN, NaN, NaN, 0.03601294, "- N/A -   "
12.51, 393.317, 0.0210089, NaN, NaN, NaN, 0.0347922, "- N/A -   "
12.66, 399.091, 0.0212699, NaN, NaN, NaN, 0.0323506, "- N/A -   "
12.81, 404.393, 0.0215143, NaN, NaN, NaN, 0.0335714, "- N/A -   "
12.96, 409.695, 0.0217503, NaN, NaN, NaN, 0.0396753, "- N/A -   "
13.11, 415.1152, 0.02199465, NaN, NaN, NaN, 0.04211683, "- N/A -   "
13.26, 421.007, 0.0222612, NaN, NaN, NaN, 0.0347922, "- N/A -   "
13.41, 426.78, 0.02252501, NaN, NaN, NaN, 0.0299091, "- N/A -   "
13.56, 431.611, 0.0227527, NaN, NaN, NaN, 0.0396753, "- N/A -   "
13.71, 436.7952, 0.022986, NaN, NaN, NaN, 0.04699994, "- N/A -   "
13.86, 443.04, 0.0232581, NaN, NaN, NaN, 0.03601294, "- N/A -   "
14.01, 449.167, 0.0235274, NaN, NaN, NaN, 0.0274675, "- N/A -   "
14.16, 454.351, 0.0237607, NaN, NaN, NaN, 0.0347922, "- N/A -   "
14.31, 459.536, 0.0239939, NaN, NaN, NaN, 0.04211683, "- N/A -   "
14.46, 465.427, 0.0242494, NaN, NaN, NaN, 0.0396753, "- N/A -   "
14.61, 471.79, 0.0245243, NaN, NaN, NaN, 0.0286883, "- N/A -   "
14.76, 476.974, 0.02475752, NaN, NaN, NaN, 0.03601294, "- N/A -   "
14.91, 482.512, 0.0249991, NaN, NaN, NaN, 0.0396753, "- N/A -   "
15.06, 487.932, 0.0252379, NaN, NaN, NaN, 0.0445584, "- N/A -   "
15.21, 494.53, 0.0255239, NaN, NaN, NaN, 0.0286883, "- N/A -   "
15.36, 500.068, 0.0257627, NaN, NaN, NaN, 0.0335714, "- N/A -   "
15.51, 505.9591, 0.02601261, NaN, NaN, NaN, 0.0335714, "- N/A -   "
15.66, 511.143, 0.0262459, NaN, NaN, NaN, 0.04089605, "- N/A -   "
15.81, 517.285, 0.0265041, NaN, NaN, NaN, 0.0372337, "- N/A -   "
15.96, 523.081, 0.0267596, NaN, NaN, NaN, 0.0347922, "- N/A -   "
16.11, 528.8765, 0.0270095, NaN, NaN, NaN, 0.0347922, "- N/A -   "
16.26, 534.7905, 0.02726215, NaN, NaN, NaN, 0.0335714, "- N/A -   "
16.41, 539.9949, 0.02749262, NaN, NaN, NaN, 0.04211683, "- N/A -   "
16.56, 546.5, 0.027762, NaN, NaN, NaN, 0.0335714, "- N/A -   "
16.71, 552.296, 0.0280146, NaN, NaN, NaN, 0.0323506, "- N/A -   "
16.86, 558.3284, 0.0282757, NaN, NaN, NaN, 0.0274675, "- N/A -   "
17.01, 563.178, 0.0284895, NaN, NaN, NaN, 0.0433376, "- N/A -   "
17.16, 569.329, 0.0287477, NaN, NaN, NaN, 0.04211683, "- N/A -   "
17.31, 575.4792, 0.0290115, NaN, NaN, NaN, 0.0347922, "- N/A -   "
17.46, 581.63, 0.0292697, NaN, NaN, NaN, 0.03112983, "- N/A -   "
17.61, 586.8341, 0.02950021, NaN, NaN, NaN, 0.0396753, "- N/A -   "
17.76, 592.5116, 0.029739, NaN, NaN, NaN, 0.0445584, "- N/A -   "
17.91, 599.0171, 0.0300111, NaN, NaN, NaN, 0.03601294, "- N/A -   "
18.06, 605.4042, 0.0302777, NaN, NaN, NaN, 0.0286883, "- N/A -   "
18.21, 611.2, 0.0305165, NaN, NaN, NaN, 0.0323506, "- N/A -   "
18.36, 616.286, 0.03073864, NaN, NaN, NaN, 0.0445584, "- N/A -   "
18.51, 622.6732, 0.03099688, NaN, NaN, NaN, 0.04089605, "- N/A -   "
18.66, 629.179, 0.0312718, NaN, NaN, NaN, 0.03112983, "- N/A -   "
18.81, 634.738, 0.0315078, NaN, NaN, NaN, 0.03601294, "- N/A -   "
18.96, 640.7702, 0.0317577, NaN, NaN, NaN, 0.0372337, "- N/A -   "
19.11, 646.4477, 0.03199929, NaN, NaN, NaN, 0.04089605, "- N/A -   "
19.26, 652.717, 0.0322575, NaN, NaN, NaN, 0.0372337, "- N/A -   "
19.41, 658.8672, 0.03251299, NaN, NaN, NaN, 0.0335714, "- N/A -   "
19.56, 665.136, 0.0327684, NaN, NaN, NaN, 0.03112983, "- N/A -   "
19.71, 670.695, 0.0330045, NaN, NaN, NaN, 0.0372337, "- N/A -   "
19.86, 676.491, 0.0332405, NaN, NaN, NaN, 0.0433376, "- N/A -   "
20.01, 683.115, 0.0335098, NaN, NaN, NaN, 0.0347922, "- N/A -   "
20.16, 689.5019, 0.03376808, NaN, NaN, NaN, 0.0323506, "- N/A -   "
20.31, 695.416, 0.03401521, NaN, NaN, NaN, 0.0323506, "- N/A -   "
20.46, 700.6203, 0.0342318, NaN, NaN, NaN, 0.04699994, "- N/A -   "
20.61, 707.3623, 0.03450114, NaN, NaN, NaN, 0.0384545, "- N/A -   "
20.76, 714.1043, 0.0347705, NaN, NaN, NaN, 0.0299091, "- N/A -   "
20.91, 720.373, 0.0350259, NaN, NaN, NaN, 0.0274675, "- N/A -   "
21.06, 725.5775, 0.03524531, NaN, NaN, NaN, 0.04089605, "- N/A -   "
21.21, 731.492, 0.0354897, NaN, NaN, NaN, 0.0445584, "- N/A -   "
21.36, 738.47, 0.0357646, NaN, NaN, NaN, 0.0323506, "- N/A -   "
21.51, 744.6208, 0.0360172, NaN, NaN, NaN, 0.03112983, "- N/A -   "
21.66, 750.6531, 0.03625605, NaN, NaN, NaN, 0.0384545, "- N/A -   "
21.81, 756.331, 0.0364893, NaN, NaN, NaN, 0.0445584, "- N/A -   "
21.96, 763.309, 0.0367614, NaN, NaN, NaN, 0.0347922, "- N/A -   "
22.11, 769.341, 0.0370141, NaN, NaN, NaN, 0.0335714, "- N/A -   "
22.26, 775.8469, 0.0372696, NaN, NaN, NaN, 0.03112983, "- N/A -   "
22.41, 781.5244, 0.03750281, NaN, NaN, NaN, 0.0384545, "- N/A -   "
22.56, 787.3201, 0.03774161, NaN, NaN, NaN, 0.0433376, "- N/A -   "
22.71, 794.0622, 0.0380054, NaN, NaN, NaN, 0.0372337, "- N/A -   "
22.86, 800.331, 0.03826364, NaN, NaN, NaN, 0.0335714, "- N/A -   "
23.01, 806.245, 0.038508, NaN, NaN, NaN, 0.0372337, "- N/A -   "
23.16, 812.3957, 0.03875235, NaN, NaN, NaN, 0.0396753, "- N/A -   "
23.31, 818.428, 0.0389967, NaN, NaN, NaN, 0.04211683, "- N/A -   "
23.46, 825.4066, 0.03926883, NaN, NaN, NaN, 0.0323506, "- N/A -   "
23.61, 831.5572, 0.03952151, NaN, NaN, NaN, 0.0299091, "- N/A -   "
23.76, 837.5895, 0.03976309, NaN, NaN, NaN, 0.0335714, "- N/A -   "
23.91, 842.7938, 0.0399825, NaN, NaN, NaN, 0.0482207, "- N/A -   "
24.06, 850.009, 0.0402629, NaN, NaN, NaN, 0.0335714, "- N/A -   "
24.21, 856.278, 0.04051559, NaN, NaN, NaN, 0.0323506, "- N/A -   "
24.36, 862.4285, 0.04076272, NaN, NaN, NaN, 0.0335714, "- N/A -   "
24.51, 867.9877, 0.0409876, NaN, NaN, NaN, 0.0445584, "- N/A -   "
24.66, 874.3748, 0.0412459, NaN, NaN, NaN, 0.04211683, "- N/A -   "
24.81, 881.4717, 0.0415263, NaN, NaN, NaN, 0.0274675, "- N/A -   "
24.96, 887.504, 0.0417651, NaN, NaN, NaN, 0.0335714, "- N/A -   "
25.11, 893.655, 0.0420095, NaN, NaN, NaN, 0.0347922, "- N/A -   "
25.26, 899.569, 0.0422427, NaN, NaN, NaN, 0.0433376, "- N/A -   "
25.41, 906.429, 0.04251207, NaN, NaN, NaN, 0.0335714, "- N/A -   "
25.56, 912.106, 0.04274532, NaN, NaN, NaN, 0.04089605, "- N/A -   "
25.71, 918.9667, 0.0430147, NaN, NaN, NaN, 0.0323506, "- N/A -   "
25.86, 924.8808, 0.0432479, NaN, NaN, NaN, 0.0396753, "- N/A -   "
26.01, 931.3862, 0.0435034, NaN, NaN, NaN, 0.0384545, "- N/A -   "
26.16, 937.7734, 0.04376161, NaN, NaN, NaN, 0.03601294, "- N/A -   "
26.31, 944.2788, 0.0440171, NaN, NaN, NaN, 0.0323506, "- N/A -   "
26.46, 950.666, 0.04426698, NaN, NaN, NaN, 0.0323506, "- N/A -   "
26.61, 956.2252, 0.0444947, NaN, NaN, NaN, 0.0433376, "- N/A -   "
26.76, 962.612, 0.044739, NaN, NaN, NaN, 0.0445584, "- N/A -   "
26.91, 969.473, 0.0450084, NaN, NaN, NaN, 0.03601294, "- N/A -   "
27.06, 976.2146, 0.0452749, NaN, NaN, NaN, 0.0286883, "- N/A -   "
27.21, 981.892, 0.0454999, NaN, NaN, NaN, 0.04089605, "- N/A -   "
27.36, 987.924, 0.04573866, NaN, NaN, NaN, 0.0445584, "- N/A -   "
27.51, 995.2579, 0.04601911, NaN, NaN, NaN, 0.03112983, "- N/A -   "
27.66, 1001.645, 0.0462718, NaN, NaN, NaN, 0.0299091, "- N/A -   "
27.81, 1007.559, 0.0465078, NaN, NaN, NaN, 0.03601294, "- N/A -   "
27.96, 1013.477, 0.04674384, NaN, NaN, NaN, 0.0433376, "- N/A -   "
28.11, 1020.04, 0.04699375, NaN, NaN, NaN, 0.04211683, "- N/A -   "
28.26, 1027.31, 0.0472742, NaN, NaN, NaN, 0.0299091, "- N/A -   "
28.41, 1033.27, 0.0475074, NaN, NaN, NaN, 0.03601294, "- N/A -   "
28.56, 1039.71, 0.04775458, NaN, NaN, NaN, 0.0384545, "- N/A -   "
28.71, 1045.44, 0.0479878, NaN, NaN, NaN, 0.0445584, "- N/A -   "
28.86, 1053.07, 0.04827661, NaN, NaN, NaN, 0.0286883, "- N/A -   "
29.01, 1059.03, 0.0485126, NaN, NaN, NaN, 0.0347922, "- N/A -   "
29.16, 1065.35, 0.0487598, NaN, NaN, NaN, 0.0347922, "- N/A -   "
29.237, 1068.33, 0.0488792, NaN, NaN, NaN, 0.0396753, "- N/A -   "