File: 2_Tensile_Data/Hamel_ForceTest_Bolt6_Test11.csv
Time, Load (lb), Position (in), AxialStrain (in), TransverseStrain (in), Auxiliary (), Control Out (V), Stress (psi)
0.0, 9.907588, 0.0, NaN, NaN, NaN, -0.006714277, "- N/A -   "
0.01, 9.78964, 2.776752E-6, NaN, NaN, NaN, -6.103888E-4, "- N/A -   "
0.02, 9.907588, 2.776752E-6, NaN, NaN, NaN, 0.006714277, "- N/A -   "
0.03, 9.907588, 2.776752E-6, NaN, NaN, NaN, 0.01525972, "- N/A -   "
0.04, 9.907588, 5.553504E-6, NaN, NaN, NaN, 0.0335714, "- N/A -   "
0.05, 10.1435, 1.1107e-05, NaN, NaN, NaN, 0.05066227, "- N/A -   "
0.06, 10.26143, 2.49908e-05, NaN, NaN, NaN, 0.0640908, "- N/A -   "
0.07, 10.6153, 4.16513e-05, NaN, NaN, NaN, 0.0762986, "- N/A -   "
0.08, 11.0871, 6.108854E-5, NaN, NaN, NaN, 0.0872856, "- N/A -   "
0.09, 11.6768, 8.885606E-5, NaN, NaN, NaN, 0.095831, "- N/A -   "
0.1, 12.2665, 0.000116624, NaN, NaN, NaN, 0.103156, "- N/A -   "
0.11, 12.8563, 0.000147168, NaN, NaN, NaN, 0.09949338, "- N/A -   "
0.12, 13.564, 0.000177712, NaN, NaN, NaN, 0.09338949, "- N/A -   "
0.13, 14.0357, 0.00020548, NaN, NaN, NaN, 0.08850638, "- N/A -   "
0.14, 14.6255, 0.000233247, NaN, NaN, NaN, 0.08362327, "- N/A -   "
0.15, 15.2152, 2.582379E-4, NaN, NaN, NaN, 0.08118171, "- N/A -   "
0.16, 15.687, 2.832287E-4, NaN, NaN, NaN, 0.07751938, "- N/A -   "
0.17, 16.1588, 0.000308219, NaN, NaN, NaN, 0.07263627, "- N/A -   "
0.18, 16.6306, 0.000327657, NaN, NaN, NaN, 0.07141549, "- N/A -   "
0.19, 16.9844, 0.000349871, NaN, NaN, NaN, 0.0701947, "- N/A -   "
0.2, 17.3383, 3.69308E-4, NaN, NaN, NaN, 0.0689739, "- N/A -   "
0.21, 17.8101, 0.000388745, NaN, NaN, NaN, 0.06653238, "- N/A -   "
0.22, 18.2819, 4.081825E-4, NaN, NaN, NaN, 0.0653116, "- N/A -   "
0.23, 18.7536, 0.000430397, NaN, NaN, NaN, 0.0640908, "- N/A -   "
0.24, 19.1075, 0.000449834, NaN, NaN, NaN, 0.06287005, "- N/A -   "
0.25, 19.4613, 0.000469271, NaN, NaN, NaN, 0.0604285, "- N/A -   "
0.26, 19.9331, 4.887083E-4, NaN, NaN, NaN, 0.0592077, "- N/A -   "
0.27, 20.287, 5.081456E-4, NaN, NaN, NaN, 0.0579869, "- N/A -   "
0.28, 20.6408, 0.000527583, NaN, NaN, NaN, 0.05676616, "- N/A -   "
0.29, 21.1126, 5.470201E-4, NaN, NaN, NaN, 0.05676616, "- N/A -   "
0.3, 21.46644, 5.664574E-4, NaN, NaN, NaN, 0.0555454, "- N/A -   "
0.31, 21.93823, 5.858946E-4, NaN, NaN, NaN, 0.0543246, "- N/A -   "
0.32, 22.29207, 6.053319E-4, NaN, NaN, NaN, 0.05188305, "- N/A -   "
0.33, 22.7639, 0.000627546, NaN, NaN, NaN, 0.05066227, "- N/A -   "
0.34, 23.2357, 0.000646983, NaN, NaN, NaN, 0.0482207, "- N/A -   "
0.35, 23.4715, 0.00066642, NaN, NaN, NaN, 0.04699994, "- N/A -   "
0.36, 24.0613, 6.858577E-4, NaN, NaN, NaN, 0.04577916, "- N/A -   "
0.37, 24.29718, 0.000705295, NaN, NaN, NaN, 0.0445584, "- N/A -   "
0.38, 24.769, 0.000724732, NaN, NaN, NaN, 0.0433376, "- N/A -   "
0.39, 25.1228, 7.413927E-4, NaN, NaN, NaN, 0.0433376, "- N/A -   "
0.4, 25.4767, 7.6083E-4, NaN, NaN, NaN, 0.04211683, "- N/A -   "
0.41, 25.9484, 0.000780267, NaN, NaN, NaN, 0.04211683, "- N/A -   "
0.42, 26.3023, 7.969278E-4, NaN, NaN, NaN, 0.04089605, "- N/A -   "
0.43, 26.5382, 0.000813588, NaN, NaN, NaN, 0.04089605, "- N/A -   "
0.44, 27.01, 0.000833026, NaN, NaN, NaN, 0.04089605, "- N/A -   "
0.45, 27.3638, 8.524628E-4, NaN, NaN, NaN, 0.0396753, "- N/A -   "
0.46, 27.7177, 8.691233E-4, NaN, NaN, NaN, 0.0384545, "- N/A -   "
0.47, 28.0715, 8.857838E-4, NaN, NaN, NaN, 0.0384545, "- N/A -   "
0.48, 28.54329, 9.052211E-4, NaN, NaN, NaN, 0.0384545, "- N/A -   "
0.49, 28.89713, 9.218816E-4, NaN, NaN, NaN, 0.0384545, "- N/A -   "
0.5, 29.251, 9.385421E-4, NaN, NaN, NaN, 0.0372337, "- N/A -   "
0.51, 29.6048, 0.000957979, NaN, NaN, NaN, 0.03601294, "- N/A -   "
0.84, 40.69188, 0.00149112, NaN, NaN, NaN, 0.0433376, "- N/A -   "
1.17, 53.4302, 0.00207979, NaN, NaN, NaN, 0.0262467, "- N/A -   "
1.5, 64.6352, 0.00259349, NaN, NaN, NaN, 0.04211683, "- N/A -   "
1.83, 77.49149, 0.003165497, NaN, NaN, NaN, 0.0323506, "- N/A -   "
2.16, 89.52213, 0.00370141, NaN, NaN, NaN, 0.0384545, "- N/A -   "
2.49, 102.6143, 0.00425676, NaN, NaN, NaN, 0.03601294, "- N/A -   "
2.82, 115.824, 0.004812111, NaN, NaN, NaN, 0.0335714, "- N/A -   "
3.15, 128.917, 0.005359131, NaN, NaN, NaN, 0.0347922, "- N/A -   "
3.48, 142.481, 0.0059117, NaN, NaN, NaN, 0.0347922, "- N/A -   "
3.81, 156.0445, 0.006461501, NaN, NaN, NaN, 0.0347922, "- N/A -   "
4.14, 169.255, 0.00700574, NaN, NaN, NaN, 0.0372337, "- N/A -   "
4.47, 182.937, 0.007549988, NaN, NaN, NaN, 0.04089605, "- N/A -   "
4.8, 196.854, 0.008108115, NaN, NaN, NaN, 0.03601294, "- N/A -   "
5.13, 211.008, 0.00866624, NaN, NaN, NaN, 0.0323506, "- N/A -   "
5.46, 224.808, 0.009216039, NaN, NaN, NaN, 0.0335714, "- N/A -   "
5.79, 238.136, 0.009751953, NaN, NaN, NaN, 0.0396753, "- N/A -   "
6.12, 251.926, 0.01031008, NaN, NaN, NaN, 0.0347922, "- N/A -   "
6.45, 264.769, 0.0108349, NaN, NaN, NaN, 0.04577916, "- N/A -   "
6.78, 279.144, 0.0114263, NaN, NaN, NaN, 0.0274675, "- N/A -   "
7.11, 291.28, 0.0119428, NaN, NaN, NaN, 0.0433376, "- N/A -   "
7.44, 304.7122, 0.0125204, NaN, NaN, NaN, 0.0299091, "- N/A -   "
7.77, 316.495, 0.0130396, NaN, NaN, NaN, 0.0433376, "- N/A -   "
8.1, 329.22, 0.0136116, NaN, NaN, NaN, 0.0335714, "- N/A -   "
8.43, 340.885, 0.0141392, NaN, NaN, NaN, 0.04577916, "- N/A -   "
8.76, 353.374, 0.0147085, NaN, NaN, NaN, 0.0372337, "- N/A -   "
9.09, 365.393, 0.0152499, NaN, NaN, NaN, 0.0396753, "- N/A -   "
9.42, 377.6465, 0.0158136, NaN, NaN, NaN, 0.0335714, "- N/A -   "
9.75, 389.3113, 0.0163495, NaN, NaN, NaN, 0.04089605, "- N/A -   "
10.08, 402.0365, 0.0169076, NaN, NaN, NaN, 0.03601294, "- N/A -   "
10.41, 413.937, 0.0174436, NaN, NaN, NaN, 0.04211683, "- N/A -   "
10.74, 426.898, 0.0180072, NaN, NaN, NaN, 0.03601294, "- N/A -   "
11.07, 438.9161, 0.0185404, NaN, NaN, NaN, 0.0433376, "- N/A -   "
11.4, 452.348, 0.0191207, NaN, NaN, NaN, 0.0299091, "- N/A -   "
11.73, 464.484, 0.0196483, NaN, NaN, NaN, 0.0396753, "- N/A -   "
12.06, 477.7987, 0.02021753, NaN, NaN, NaN, 0.03112983, "- N/A -   "
12.39, 489.935, 0.0207451, NaN, NaN, NaN, 0.04089605, "- N/A -   "
12.72, 503.2491, 0.0213116, NaN, NaN, NaN, 0.0347922, "- N/A -   "
13.05, 516.22, 0.02185859, NaN, NaN, NaN, 0.03601294, "- N/A -   "
13.38, 529.4679, 0.0224139, NaN, NaN, NaN, 0.0335714, "- N/A -   "
13.71, 542.4788, 0.0229665, NaN, NaN, NaN, 0.0323506, "- N/A -   "
14.04, 555.726, 0.0235108, NaN, NaN, NaN, 0.0347922, "- N/A -   "
14.37, 568.8554, 0.0240606, NaN, NaN, NaN, 0.0347922, "- N/A -   "
14.7, 582.103, 0.0246048, NaN, NaN, NaN, 0.0372337, "- N/A -   "
15.03, 595.705, 0.0251601, NaN, NaN, NaN, 0.0347922, "- N/A -   "
15.36, 609.1892, 0.0257099, NaN, NaN, NaN, 0.03601294, "- N/A -   "
15.69, 623.0281, 0.0262681, NaN, NaN, NaN, 0.03112983, "- N/A -   "
16.02, 636.6304, 0.0268068, NaN, NaN, NaN, 0.03601294, "- N/A -   "
16.35, 650.7058, 0.0273704, NaN, NaN, NaN, 0.03112983, "- N/A -   "
16.68, 663.598, 0.02788692, NaN, NaN, NaN, 0.04577916, "- N/A -   "
17.01, 678.62, 0.0284673, NaN, NaN, NaN, 0.0323506, "- N/A -   "
17.34, 691.9858, 0.0289865, NaN, NaN, NaN, 0.04577916, "- N/A -   "
17.67, 707.007, 0.0295752, NaN, NaN, NaN, 0.0286883, "- N/A -   "
18, 720.373, 0.0300889, NaN, NaN, NaN, 0.0445584, "- N/A -   "
18.33, 735.395, 0.0306637, NaN, NaN, NaN, 0.0335714, "- N/A -   "
18.66, 748.997, 0.0311857, NaN, NaN, NaN, 0.04577916, "- N/A -   "
18.99, 764.0188, 0.0317522, NaN, NaN, NaN, 0.0384545, "- N/A -   "
19.32, 778.4491, 0.0322992, NaN, NaN, NaN, 0.0396753, "- N/A -   "
19.65, 793.589, 0.0328656, NaN, NaN, NaN, 0.0335714, "- N/A -   "
19.98, 807.5462, 0.033396, NaN, NaN, NaN, 0.04089605, "- N/A -   "
20.31, 822.9227, 0.03396523, NaN, NaN, NaN, 0.0335714, "- N/A -   "
20.64, 836.762, 0.0344928, NaN, NaN, NaN, 0.04211683, "- N/A -   "
20.97, 852.375, 0.0350676, NaN, NaN, NaN, 0.03112983, "- N/A -   "
21.3, 866.095, 0.0355841, NaN, NaN, NaN, 0.04577916, "- N/A -   "
21.63, 882.181, 0.0361783, NaN, NaN, NaN, 0.0262467, "- N/A -   "
21.96, 895.902, 0.0366948, NaN, NaN, NaN, 0.04211683, "- N/A -   "
22.29, 911.633, 0.0372668, NaN, NaN, NaN, 0.0323506, "- N/A -   "
22.62, 925.827, 0.03779437, NaN, NaN, NaN, 0.04211683, "- N/A -   "
22.95, 941.204, 0.0383636, NaN, NaN, NaN, 0.0347922, "- N/A -   "
23.28, 955.989, 0.03891062, NaN, NaN, NaN, 0.0347922, "- N/A -   "
23.61, 970.5372, 0.0394465, NaN, NaN, NaN, 0.04089605, "- N/A -   "
23.94, 986.032, 0.04001577, NaN, NaN, NaN, 0.0323506, "- N/A -   "
24.27, 1000.82, 0.04056279, NaN, NaN, NaN, 0.0335714, "- N/A -   "
24.6, 1015.86, 0.0411126, NaN, NaN, NaN, 0.0335714, "- N/A -   "
24.93, 1030.65, 0.0416485, NaN, NaN, NaN, 0.0396753, "- N/A -   "
25.26, 1046.03, 0.0422066, NaN, NaN, NaN, 0.03601294, "- N/A -   "
25.59, 1061.3, 0.0427592, NaN, NaN, NaN, 0.0347922, "- N/A -   "
25.92, 1076.56, 0.04331455, NaN, NaN, NaN, 0.0323506, "- N/A -   "
26.25, 1091.35, 0.04385324, NaN, NaN, NaN, 0.0396753, "- N/A -   "
26.58, 1106.85, 0.04441137, NaN, NaN, NaN, 0.0347922, "- N/A -   "
26.91, 1121.4, 0.0449417, NaN, NaN, NaN, 0.0445584, "- N/A -   "
27.24, 1137.74, 0.0455248, NaN, NaN, NaN, 0.0299091, "- N/A -   "
27.57, 1151.93, 0.04604132, NaN, NaN, NaN, 0.0445584, "- N/A -   "
27.9, 1167.91, 0.0466189, NaN, NaN, NaN, 0.03112983, "- N/A -   "
28.23, 1182.457, 0.0471409, NaN, NaN, NaN, 0.0433376, "- N/A -   "
28.56, 1198.556, 0.04772126, NaN, NaN, NaN, 0.0299091, "- N/A -   "
28.89, 1212.87, 0.0482433, NaN, NaN, NaN, 0.0433376, "- N/A -   "
29.22, 1227.77, 0.04878475, NaN, NaN, NaN, 0.04699994, "- N/A -   "
29.55, 1243.99, 0.0493595, NaN, NaN, NaN, 0.0347922, "- N/A -   "
29.88, 1259.85, 0.0499232, NaN, NaN, NaN, 0.0299091, "- N/A -   "
30.21, 1274.281, 0.050448, NaN, NaN, NaN, 0.0396753, "- N/A -   "
30.54, 1290.14, 0.0510089, NaN, NaN, NaN, 0.0347922, "- N/A -   "
30.87, 1304.571, 0.05153929, NaN, NaN, NaN, 0.0445584, "- N/A -   "
31.2, 1320.79, 0.0521169, NaN, NaN, NaN, 0.0323506, "- N/A -   "
31.53, 1335.46, 0.05264166, NaN, NaN, NaN, 0.0433376, "- N/A -   "
31.86, 1351.79, 0.053222, NaN, NaN, NaN, 0.0299091, "- N/A -   "
32.19, 1366.58, 0.0537468, NaN, NaN, NaN, 0.04089605, "- N/A -   "
32.52, 1382.56, 0.0543216, NaN, NaN, NaN, 0.0299091, "- N/A -   "
32.85, 1397.349, 0.0548492, NaN, NaN, NaN, 0.0396753, "- N/A -   "
33.18, 1412.97, 0.0554073, NaN, NaN, NaN, 0.03601294, "- N/A -   "
33.51, 1428.47, 0.0559627, NaN, NaN, NaN, 0.0335714, "- N/A -   "
33.84, 1443.98, 0.0565125, NaN, NaN, NaN, 0.0335714, "- N/A -   "
34.17, 1459.36, 0.0570678, NaN, NaN, NaN, 0.03112983, "- N/A -   "
34.5, 1474.27, 0.05760094, NaN, NaN, NaN, 0.0384545, "- N/A -   "
34.83, 1489.89, 0.0581591, NaN, NaN, NaN, 0.0347922, "- N/A -   "
35.16, 1504.8, 0.0586978, NaN, NaN, NaN, 0.0396753, "- N/A -   "
35.49, 1520.54, 0.05925866, NaN, NaN, NaN, 0.03601294, "- N/A -   "
35.82, 1535.8, 0.05980568, NaN, NaN, NaN, 0.0384545, "- N/A -   "
36.15, 1551.42, 0.0603666, NaN, NaN, NaN, 0.0335714, "- N/A -   "
36.48, 1566.45, 0.0609025, NaN, NaN, NaN, 0.0384545, "- N/A -   "
36.81, 1582.43, 0.06147173, NaN, NaN, NaN, 0.0299091, "- N/A -   "
37.14, 1596.5, 0.0619799, NaN, NaN, NaN, 0.0482207, "- N/A -   "
37.47, 1613.2, 0.0625713, NaN, NaN, NaN, 0.0299091, "- N/A -   "
37.8, 1627.51, 0.06309058, NaN, NaN, NaN, 0.0433376, "- N/A -   "
38.13, 1643.84, 0.0636737, NaN, NaN, NaN, 0.0286883, "- N/A -   "
38.46, 1657.8, 0.06418461, NaN, NaN, NaN, 0.04577916, "- N/A -   "
38.79, 1674.01, 0.06476218, NaN, NaN, NaN, 0.0335714, "- N/A -   "
39.12, 1688.68, 0.0652898, NaN, NaN, NaN, 0.0433376, "- N/A -   "
39.45, 1704.54, 0.06585622, NaN, NaN, NaN, 0.03601294, "- N/A -   "
39.78, 1719.57, 0.06639769, NaN, NaN, NaN, 0.0396753, "- N/A -   "
40.11, 1735.31, 0.06696137, NaN, NaN, NaN, 0.0347922, "- N/A -   "
40.44, 1749.977, 0.06750006, NaN, NaN, NaN, 0.0396753, "- N/A -   "
40.77, 1765.72, 0.0680665, NaN, NaN, NaN, 0.0323506, "- N/A -   "
41.1, 1780.148, 0.0685941, NaN, NaN, NaN, 0.0433376, "- N/A -   "
41.43, 1795.89, 0.06916333, NaN, NaN, NaN, 0.0335714, "- N/A -   "
41.76, 1809.96, 0.06968536, NaN, NaN, NaN, 0.04577916, "- N/A -   "
42.09, 1826.3, 0.07027404, NaN, NaN, NaN, 0.0286883, "- N/A -   "
42.42, 1840.73, 0.0708044, NaN, NaN, NaN, 0.0372337, "- N/A -   "
42.75, 1856.23, 0.0713681, NaN, NaN, NaN, 0.0323506, "- N/A -   "
43.08, 1870.9, 0.07190121, NaN, NaN, NaN, 0.0384545, "- N/A -   "
43.41, 1886.4, 0.07246489, NaN, NaN, NaN, 0.0335714, "- N/A -   "
43.74, 1901.43, 0.07301746, NaN, NaN, NaN, 0.03112983, "- N/A -   "
44.07, 1916.21, 0.0735562, NaN, NaN, NaN, 0.0372337, "- N/A -   "
44.4, 1931.598, 0.07411706, NaN, NaN, NaN, 0.0323506, "- N/A -   "
44.73, 1946.39, 0.07466131, NaN, NaN, NaN, 0.0347922, "- N/A -   "
45.06, 1961.29, 0.0752111, NaN, NaN, NaN, 0.0347922, "- N/A -   "
45.39, 1975.84, 0.0757442, NaN, NaN, NaN, 0.04211683, "- N/A -   "
45.72, 1991.1, 0.0763051, NaN, NaN, NaN, 0.0372337, "- N/A -   "
46.05, 2006.25, 0.07686327, NaN, NaN, NaN, 0.0335714, "- N/A -   "
46.38, 2021.51, 0.0774242, NaN, NaN, NaN, 0.0286883, "- N/A -   "
46.71, 2035.23, 0.07794898, NaN, NaN, NaN, 0.04089605, "- N/A -   "
47.04, 2050.49, 0.07851265, NaN, NaN, NaN, 0.0347922, "- N/A -   "
47.37, 2064.564, 0.07904024, NaN, NaN, NaN, 0.0433376, "- N/A -   "
47.7, 2079.95, 0.0796178, NaN, NaN, NaN, 0.0323506, "- N/A -   "
48.03, 2093.66, 0.08013705, NaN, NaN, NaN, 0.0445584, "- N/A -   "
48.36, 2109.164, 0.08072018, NaN, NaN, NaN, 0.0299091, "- N/A -   "
48.586, 2117.87, 0.08106171, NaN, NaN, NaN, 0.04577916, "- N/A -   "