File: 2_Tensile_Data/Hamel_ForceTest_Bolt3_Test8.csv
Time, Load (lb), Position (in), AxialStrain (in), TransverseStrain (in), Auxiliary (), Control Out (V), Stress (psi)
0.0, 9.907588, 0.0, NaN, NaN, NaN, -0.007935055, "- N/A -   "
0.01, 9.907588, -2.776752E-6, NaN, NaN, NaN, 0.00427272, "- N/A -   "
0.02, 9.907588, 0.0, NaN, NaN, NaN, 0.0225844, "- N/A -   "
0.03, 10.0255, 2.776752E-6, NaN, NaN, NaN, 0.04089605, "- N/A -   "
0.04, 10.1435, 1.38838e-05, NaN, NaN, NaN, 0.05676616, "- N/A -   "
0.05, 10.3794, 2.77675e-05, NaN, NaN, NaN, 0.0689739, "- N/A -   "
0.06, 10.73322, 4.720478E-5, NaN, NaN, NaN, 0.0799609, "- N/A -   "
0.07, 10.9691, 6.94188E-5, NaN, NaN, NaN, 0.0897272, "- N/A -   "
0.08, 11.4409, 9.718631E-5, NaN, NaN, NaN, 0.0982726, "- N/A -   "
0.09, 11.9127, 0.000124954, NaN, NaN, NaN, 0.104376, "- N/A -   "
0.1, 12.5024, 0.000158275, NaN, NaN, NaN, 0.103156, "- N/A -   "
0.11, 13.09217, 0.000188819, NaN, NaN, NaN, 0.09705182, "- N/A -   "
0.12, 13.564, 2.193634E-4, NaN, NaN, NaN, 0.09094793, "- N/A -   "
0.13, 14.0357, 0.000249908, NaN, NaN, NaN, 0.08606482, "- N/A -   "
0.14, 14.3896, 2.776752E-4, NaN, NaN, NaN, 0.08118171, "- N/A -   "
0.15, 14.8614, 0.000302666, NaN, NaN, NaN, 0.0762986, "- N/A -   "
0.16, 15.3332, 0.000330433, NaN, NaN, NaN, 0.07263627, "- N/A -   "
0.17, 15.805, 0.000355424, NaN, NaN, NaN, 0.06775316, "- N/A -   "
0.18, 16.1588, 0.000383192, NaN, NaN, NaN, 0.0640908, "- N/A -   "
0.19, 16.6306, 0.000405406, NaN, NaN, NaN, 0.0604285, "- N/A -   "
0.2, 16.9844, 0.000430397, NaN, NaN, NaN, 0.0579869, "- N/A -   "
0.21, 17.3383, 0.000449834, NaN, NaN, NaN, 0.0555454, "- N/A -   "
0.22, 17.6921, 4.720478E-4, NaN, NaN, NaN, 0.0531038, "- N/A -   "
0.23, 17.928, 0.000491485, NaN, NaN, NaN, 0.0531038, "- N/A -   "
0.24, 18.16391, 0.000510922, NaN, NaN, NaN, 0.05188305, "- N/A -   "
0.25, 18.5178, 0.000527583, NaN, NaN, NaN, 0.05066227, "- N/A -   "
0.26, 18.7536, 5.442434E-4, NaN, NaN, NaN, 0.05066227, "- N/A -   "
0.27, 18.9895, 5.636806E-4, NaN, NaN, NaN, 0.0494415, "- N/A -   "
0.28, 19.3434, 5.831179E-4, NaN, NaN, NaN, 0.0494415, "- N/A -   "
0.29, 19.57928, 5.997784E-4, NaN, NaN, NaN, 0.0494415, "- N/A -   "
0.3, 19.8152, 6.136621E-4, NaN, NaN, NaN, 0.0494415, "- N/A -   "
0.31, 20.169, 0.000630323, NaN, NaN, NaN, 0.0494415, "- N/A -   "
0.32, 20.287, 6.497599E-4, NaN, NaN, NaN, 0.0494415, "- N/A -   "
0.33, 20.52286, 0.00066642, NaN, NaN, NaN, 0.0494415, "- N/A -   "
0.38, 22.0562, 0.000758053, NaN, NaN, NaN, 0.04577916, "- N/A -   "
0.43, 23.3536, 8.413558E-4, NaN, NaN, NaN, 0.0445584, "- N/A -   "
0.48, 24.769, 9.329886E-4, NaN, NaN, NaN, 0.04089605, "- N/A -   "
0.53, 26.0664, 0.00102462, NaN, NaN, NaN, 0.0384545, "- N/A -   "
0.58, 27.3638, 0.00110792, NaN, NaN, NaN, 0.0372337, "- N/A -   "
0.63, 28.6612, 0.001194, NaN, NaN, NaN, 0.03601294, "- N/A -   "
0.68, 29.9587, 0.00127731, NaN, NaN, NaN, 0.03601294, "- N/A -   "
0.73, 31.2561, 0.00136616, NaN, NaN, NaN, 0.0347922, "- N/A -   "
0.78, 32.67145, 0.00144669, NaN, NaN, NaN, 0.0347922, "- N/A -   "
0.83, 33.73298, 0.00152999, NaN, NaN, NaN, 0.0347922, "- N/A -   "
0.88, 35.1483, 0.00161052, NaN, NaN, NaN, 0.03601294, "- N/A -   "
0.93, 36.44577, 0.00169937, NaN, NaN, NaN, 0.0347922, "- N/A -   "
0.98, 37.6252, 0.00177712, NaN, NaN, NaN, 0.03601294, "- N/A -   "
1.03, 38.8047, 0.00185209, NaN, NaN, NaN, 0.0396753, "- N/A -   "
1.08, 40.10214, 0.00193262, NaN, NaN, NaN, 0.04089605, "- N/A -   "
1.13, 41.2816, 0.00200759, NaN, NaN, NaN, 0.04577916, "- N/A -   "
1.18, 42.579, 0.00209089, NaN, NaN, NaN, 0.0445584, "- N/A -   "
1.23, 44.34825, 0.0021853, NaN, NaN, NaN, 0.0396753, "- N/A -   "
1.28, 45.76362, 0.00228249, NaN, NaN, NaN, 0.0335714, "- N/A -   "
1.33, 47.179, 0.002371346, NaN, NaN, NaN, 0.03112983, "- N/A -   "
1.38, 48.59436, 0.00245743, NaN, NaN, NaN, 0.0299091, "- N/A -   "
1.43, 49.7738, 0.00253517, NaN, NaN, NaN, 0.0335714, "- N/A -   "
1.48, 51.1892, 0.00262403, NaN, NaN, NaN, 0.03112983, "- N/A -   "
1.53, 52.84047, 0.00271566, NaN, NaN, NaN, 0.0262467, "- N/A -   "
1.58, 53.902, 0.00278786, NaN, NaN, NaN, 0.03112983, "- N/A -   "
1.63, 55.3174, 0.00286283, NaN, NaN, NaN, 0.0347922, "- N/A -   "
1.68, 56.6148, 0.00294058, NaN, NaN, NaN, 0.0372337, "- N/A -   "
1.73, 57.79426, 0.00301555, NaN, NaN, NaN, 0.04089605, "- N/A -   "
1.78, 59.0917, 0.00309052, NaN, NaN, NaN, 0.0445584, "- N/A -   "
1.83, 60.3891, 0.00317105, NaN, NaN, NaN, 0.04577916, "- N/A -   "
1.88, 62.0404, 0.00325991, NaN, NaN, NaN, 0.0433376, "- N/A -   "
1.93, 63.45574, 0.00334599, NaN, NaN, NaN, 0.0433376, "- N/A -   "
1.98, 64.98906, 0.00343484, NaN, NaN, NaN, 0.0396753, "- N/A -   "
2.03, 66.40443, 0.003523698, NaN, NaN, NaN, 0.0372337, "- N/A -   "
2.08, 68.05569, 0.003615331, NaN, NaN, NaN, 0.0335714, "- N/A -   "
2.13, 69.47106, 0.00370141, NaN, NaN, NaN, 0.0323506, "- N/A -   "
2.18, 71.12233, 0.00379027, NaN, NaN, NaN, 0.03112983, "- N/A -   "
2.23, 72.5377, 0.003873569, NaN, NaN, NaN, 0.0299091, "- N/A -   "
2.28, 73.83511, 0.003948541, NaN, NaN, NaN, 0.0335714, "- N/A -   "
2.33, 75.0146, 0.00402074, NaN, NaN, NaN, 0.0396753, "- N/A -   "
2.38, 76.31202, 0.004095709, NaN, NaN, NaN, 0.04211683, "- N/A -   "
2.43, 77.96328, 0.00417901, NaN, NaN, NaN, 0.04211683, "- N/A -   "
2.48, 79.2607, 0.004262314, NaN, NaN, NaN, 0.0433376, "- N/A -   "
2.53, 80.67606, 0.00434284, NaN, NaN, NaN, 0.0445584, "- N/A -   "
2.58, 82.44528, 0.004434473, NaN, NaN, NaN, 0.0396753, "- N/A -   "
2.63, 84.09654, 0.00452888, NaN, NaN, NaN, 0.0347922, "- N/A -   "
2.68, 85.86576, 0.00462607, NaN, NaN, NaN, 0.0286883, "- N/A -   "
2.73, 87.51702, 0.004712148, NaN, NaN, NaN, 0.0274675, "- N/A -   "
2.78, 88.8144, 0.00479267, NaN, NaN, NaN, 0.0286883, "- N/A -   "
2.83, 90.22981, 0.0048732, NaN, NaN, NaN, 0.03112983, "- N/A -   "
2.88, 91.76313, 0.00495373, NaN, NaN, NaN, 0.0323506, "- N/A -   "
2.93, 93.1785, 0.005031475, NaN, NaN, NaN, 0.0347922, "- N/A -   "
2.98, 94.59387, 0.00510922, NaN, NaN, NaN, 0.03601294, "- N/A -   "
3.03, 95.8913, 0.0051842, NaN, NaN, NaN, 0.0396753, "- N/A -   "
3.08, 97.30666, 0.005261945, NaN, NaN, NaN, 0.04211683, "- N/A -   "
3.13, 98.83998, 0.00533969, NaN, NaN, NaN, 0.0445584, "- N/A -   "
3.18, 100.255, 0.00542022, NaN, NaN, NaN, 0.04577916, "- N/A -   "
3.23, 102.025, 0.005514629, NaN, NaN, NaN, 0.04089605, "- N/A -   "
3.28, 103.676, 0.00560626, NaN, NaN, NaN, 0.0372337, "- N/A -   "
3.33, 105.327, 0.0056979, NaN, NaN, NaN, 0.0335714, "- N/A -   "
3.38, 106.86, 0.0057812, NaN, NaN, NaN, 0.0335714, "- N/A -   "
3.43, 108.512, 0.0058645, NaN, NaN, NaN, 0.0347922, "- N/A -   "
3.48, 109.8091, 0.00594225, NaN, NaN, NaN, 0.03601294, "- N/A -   "
3.53, 111.578, 0.00603111, NaN, NaN, NaN, 0.0335714, "- N/A -   "
3.58, 113.112, 0.006114408, NaN, NaN, NaN, 0.0335714, "- N/A -   "
3.63, 114.527, 0.00619771, NaN, NaN, NaN, 0.03601294, "- N/A -   "
3.68, 116.06, 0.00627546, NaN, NaN, NaN, 0.0384545, "- N/A -   "
3.73, 117.24, 0.00635043, NaN, NaN, NaN, 0.04211683, "- N/A -   "
3.78, 119.127, 0.00643651, NaN, NaN, NaN, 0.0396753, "- N/A -   "
3.83, 120.66, 0.006519814, NaN, NaN, NaN, 0.04089605, "- N/A -   "
3.88, 122.312, 0.00660589, NaN, NaN, NaN, 0.0384545, "- N/A -   "
3.93, 123.845, 0.00669475, NaN, NaN, NaN, 0.03601294, "- N/A -   "
3.98, 125.378, 0.006778052, NaN, NaN, NaN, 0.0372337, "- N/A -   "
4.03, 126.911, 0.0068558, NaN, NaN, NaN, 0.0396753, "- N/A -   "
4.08, 128.4448, 0.0069391, NaN, NaN, NaN, 0.0384545, "- N/A -   "
4.13, 130.214, 0.007030736, NaN, NaN, NaN, 0.0347922, "- N/A -   "
4.18, 131.747, 0.00711681, NaN, NaN, NaN, 0.0347922, "- N/A -   "
4.23, 133.399, 0.00720289, NaN, NaN, NaN, 0.0323506, "- N/A -   "
4.28, 134.932, 0.0072862, NaN, NaN, NaN, 0.0335714, "- N/A -   "
4.33, 136.819, 0.00737228, NaN, NaN, NaN, 0.03112983, "- N/A -   "
4.38, 138.234, 0.0074528, NaN, NaN, NaN, 0.0335714, "- N/A -   "
4.43, 139.414, 0.007516667, NaN, NaN, NaN, 0.04089605, "- N/A -   "
4.48, 141.065, 0.00759997, NaN, NaN, NaN, 0.04089605, "- N/A -   "
4.53, 142.5985, 0.007677719, NaN, NaN, NaN, 0.0433376, "- N/A -   "
4.58, 144.25, 0.007758245, NaN, NaN, NaN, 0.0445584, "- N/A -   "
4.63, 145.901, 0.007841547, NaN, NaN, NaN, 0.0445584, "- N/A -   "
4.68, 147.788, 0.007938733, NaN, NaN, NaN, 0.0384545, "- N/A -   "
4.73, 149.557, 0.008027589, NaN, NaN, NaN, 0.03601294, "- N/A -   "
4.78, 151.327, 0.00811645, NaN, NaN, NaN, 0.0347922, "- N/A -   "
4.83, 152.978, 0.008199749, NaN, NaN, NaN, 0.0347922, "- N/A -   "
4.88, 154.629, 0.008285827, NaN, NaN, NaN, 0.0335714, "- N/A -   "
4.93, 156.634, 0.008377461, NaN, NaN, NaN, 0.0299091, "- N/A -   "
4.98, 158.168, 0.008457986, NaN, NaN, NaN, 0.0299091, "- N/A -   "
5.03, 159.701, 0.008535735, NaN, NaN, NaN, 0.0323506, "- N/A -   "
5.08, 160.998, 0.008605153, NaN, NaN, NaN, 0.0384545, "- N/A -   "
5.13, 162.414, 0.008674573, NaN, NaN, NaN, 0.0445584, "- N/A -   "
5.18, 164.065, 0.008752322, NaN, NaN, NaN, 0.04699994, "- N/A -   "
5.23, 165.7162, 0.008841177, NaN, NaN, NaN, 0.04577916, "- N/A -   "
5.28, 167.7213, 0.00893559, NaN, NaN, NaN, 0.0396753, "- N/A -   "
5.33, 169.373, 0.009024444, NaN, NaN, NaN, 0.0384545, "- N/A -   "
5.38, 171.142, 0.009107746, NaN, NaN, NaN, 0.0372337, "- N/A -   "
5.43, 172.793, 0.009196602, NaN, NaN, NaN, 0.0347922, "- N/A -   "
5.48, 174.798, 0.009288236, NaN, NaN, NaN, 0.03112983, "- N/A -   "
5.53, 176.567, 0.009374314, NaN, NaN, NaN, 0.0299091, "- N/A -   "
5.58, 178.219, 0.009463171, NaN, NaN, NaN, 0.0274675, "- N/A -   "
5.63, 179.87, 0.009543696, NaN, NaN, NaN, 0.0286883, "- N/A -   "
5.68, 181.167, 0.009615892, NaN, NaN, NaN, 0.0335714, "- N/A -   "
5.73, 182.583, 0.009688088, NaN, NaN, NaN, 0.0384545, "- N/A -   "
5.78, 183.998, 0.009757506, NaN, NaN, NaN, 0.0445584, "- N/A -   "
5.83, 185.531, 0.009838033, NaN, NaN, NaN, 0.04577916, "- N/A -   "
5.88, 187.183, 0.009924112, NaN, NaN, NaN, 0.0445584, "- N/A -   "
5.93, 188.952, 0.010013, NaN, NaN, NaN, 0.0433376, "- N/A -   "
5.98, 190.603, 0.0101018, NaN, NaN, NaN, 0.0396753, "- N/A -   "
6.03, 192.372, 0.0101935, NaN, NaN, NaN, 0.03601294, "- N/A -   "
6.08, 194.259, 0.0102879, NaN, NaN, NaN, 0.03112983, "- N/A -   "
6.13, 195.7928, 0.0103739, NaN, NaN, NaN, 0.0299091, "- N/A -   "
6.18, 197.208, 0.01045447, NaN, NaN, NaN, 0.03112983, "- N/A -   "
6.23, 198.859, 0.010535, NaN, NaN, NaN, 0.0323506, "- N/A -   "
6.28, 200.275, 0.0106127, NaN, NaN, NaN, 0.03601294, "- N/A -   "
6.33, 201.808, 0.010696, NaN, NaN, NaN, 0.03601294, "- N/A -   "
6.38, 203.2235, 0.0107766, NaN, NaN, NaN, 0.0372337, "- N/A -   "
6.43, 204.7568, 0.0108543, NaN, NaN, NaN, 0.0384545, "- N/A -   "
6.48, 206.054, 0.0109265, NaN, NaN, NaN, 0.0433376, "- N/A -   "
6.53, 207.588, 0.0110098, NaN, NaN, NaN, 0.0445584, "- N/A -   "
6.58, 209.239, 0.0110931, NaN, NaN, NaN, 0.0433376, "- N/A -   "
6.63, 211.008, 0.0111875, NaN, NaN, NaN, 0.0384545, "- N/A -   "
6.68, 212.895, 0.0112847, NaN, NaN, NaN, 0.0335714, "- N/A -   "
6.73, 214.546, 0.0113708, NaN, NaN, NaN, 0.03112983, "- N/A -   "
6.78, 216.08, 0.0114541, NaN, NaN, NaN, 0.03112983, "- N/A -   "
6.83, 217.495, 0.0115291, NaN, NaN, NaN, 0.0347922, "- N/A -   "
6.88, 218.9105, 0.0116068, NaN, NaN, NaN, 0.0384545, "- N/A -   "
6.89, 219.264, 0.0116207, NaN, NaN, NaN, 0.0384545, "- N/A -   "
6.9, 219.5, 0.0116401, NaN, NaN, NaN, 0.0384545, "- N/A -   "
6.91, 219.8541, 0.011654, NaN, NaN, NaN, 0.0384545, "- N/A -   "
6.93, 220.562, 0.0116929, NaN, NaN, NaN, 0.03601294, "- N/A -   "
6.95, 221.387, 0.0117318, NaN, NaN, NaN, 0.0335714, "- N/A -   "
6.97, 222.095, 0.0117679, NaN, NaN, NaN, 0.0323506, "- N/A -   "
6.99, 222.685, 0.011804, NaN, NaN, NaN, 0.03112983, "- N/A -   "
7.01, 223.275, 0.0118345, NaN, NaN, NaN, 0.0323506, "- N/A -   "
7.03, 223.746, 0.0118678, NaN, NaN, NaN, 0.0323506, "- N/A -   "
7.05, 224.454, 0.0118984, NaN, NaN, NaN, 0.0335714, "- N/A -   "
7.07, 225.044, 0.0119289, NaN, NaN, NaN, 0.0347922, "- N/A -   "
7.09, 225.6335, 0.0119595, NaN, NaN, NaN, 0.03601294, "- N/A -   "
7.11, 226.1053, 0.01199, NaN, NaN, NaN, 0.0384545, "- N/A -   "
7.13, 226.695, 0.0120178, NaN, NaN, NaN, 0.0396753, "- N/A -   "
7.15, 227.167, 0.0120511, NaN, NaN, NaN, 0.0396753, "- N/A -   "
7.17, 227.757, 0.0120816, NaN, NaN, NaN, 0.04211683, "- N/A -   "
7.19, 228.464, 0.0121122, NaN, NaN, NaN, 0.04211683, "- N/A -   "
7.21, 229.172, 0.01214829, NaN, NaN, NaN, 0.04089605, "- N/A -   "
7.23, 229.762, 0.0121816, NaN, NaN, NaN, 0.04089605, "- N/A -   "
7.25, 230.351, 0.0122149, NaN, NaN, NaN, 0.04089605, "- N/A -   "
7.27, 231.0591, 0.01225103, NaN, NaN, NaN, 0.0396753, "- N/A -   "
7.29, 231.767, 0.0122871, NaN, NaN, NaN, 0.0396753, "- N/A -   "
7.31, 232.474, 0.0123232, NaN, NaN, NaN, 0.0372337, "- N/A -   "
7.33, 233.182, 0.0123621, NaN, NaN, NaN, 0.03601294, "- N/A -   "
7.35, 234.008, 0.0123982, NaN, NaN, NaN, 0.0347922, "- N/A -   "
7.37, 234.48, 0.0124287, NaN, NaN, NaN, 0.0347922, "- N/A -   "
7.39, 235.0693, 0.0124621, NaN, NaN, NaN, 0.0347922, "- N/A -   "
7.41, 235.777, 0.0124954, NaN, NaN, NaN, 0.0347922, "- N/A -   "
7.43, 236.249, 0.0125259, NaN, NaN, NaN, 0.03601294, "- N/A -   "
7.45, 236.956, 0.0125592, NaN, NaN, NaN, 0.03601294, "- N/A -   "
7.47, 237.5462, 0.01259257, NaN, NaN, NaN, 0.03601294, "- N/A -   "
7.49, 238.372, 0.0126287, NaN, NaN, NaN, 0.0347922, "- N/A -   "
7.51, 238.962, 0.0126648, NaN, NaN, NaN, 0.0335714, "- N/A -   "
7.53, 239.669, 0.01270364, NaN, NaN, NaN, 0.0323506, "- N/A -   "
7.55, 240.377, 0.012737, NaN, NaN, NaN, 0.03112983, "- N/A -   "
7.57, 240.967, 0.0127703, NaN, NaN, NaN, 0.03112983, "- N/A -   "
7.59, 241.556, 0.0128008, NaN, NaN, NaN, 0.0323506, "- N/A -   "
7.61, 242.146, 0.0128341, NaN, NaN, NaN, 0.0335714, "- N/A -   "
7.63, 242.736, 0.0128675, NaN, NaN, NaN, 0.0335714, "- N/A -   "
7.65, 243.443, 0.012898, NaN, NaN, NaN, 0.0335714, "- N/A -   "
7.67, 244.15, 0.0129313, NaN, NaN, NaN, 0.0335714, "- N/A -   "
7.69, 244.7387, 0.0129674, NaN, NaN, NaN, 0.0335714, "- N/A -   "
7.71, 245.328, 0.0129952, NaN, NaN, NaN, 0.0347922, "- N/A -   "
7.73, 246.035, 0.0130313, NaN, NaN, NaN, 0.0347922, "- N/A -   "
7.75, 246.624, 0.0130646, NaN, NaN, NaN, 0.0347922, "- N/A -   "
7.77, 247.331, 0.0130979, NaN, NaN, NaN, 0.0335714, "- N/A -   "
7.79, 248.038, 0.01313126, NaN, NaN, NaN, 0.0335714, "- N/A -   "
7.81, 248.509, 0.0131618, NaN, NaN, NaN, 0.0347922, "- N/A -   "
7.83, 248.98, 0.0131923, NaN, NaN, NaN, 0.0372337, "- N/A -   "
7.85, 249.57, 0.0132201, NaN, NaN, NaN, 0.0384545, "- N/A -   "
7.87, 250.159, 0.0132534, NaN, NaN, NaN, 0.0396753, "- N/A -   "
7.89, 250.866, 0.013284, NaN, NaN, NaN, 0.0396753, "- N/A -   "
7.91, 251.455, 0.0133145, NaN, NaN, NaN, 0.04089605, "- N/A -   "
7.93, 252.044, 0.0133478, NaN, NaN, NaN, 0.04211683, "- N/A -   "
7.95, 252.633, 0.01337839, NaN, NaN, NaN, 0.04211683, "- N/A -   "
7.97, 253.222, 0.0134117, NaN, NaN, NaN, 0.04211683, "- N/A -   "
7.99, 253.929, 0.01344781, NaN, NaN, NaN, 0.04089605, "- N/A -   "
8.01, 254.6361, 0.0134811, NaN, NaN, NaN, 0.04089605, "- N/A -   "
8.03, 255.461, 0.0135172, NaN, NaN, NaN, 0.0396753, "- N/A -   "
8.05, 256.168, 0.0135533, NaN, NaN, NaN, 0.0384545, "- N/A -   "
8.07, 256.757, 0.0135922, NaN, NaN, NaN, 0.03601294, "- N/A -   "
8.09, 257.582, 0.0136311, NaN, NaN, NaN, 0.0335714, "- N/A -   "
8.11, 258.2887, 0.0136672, NaN, NaN, NaN, 0.0323506, "- N/A -   "
8.13, 258.878, 0.0137005, NaN, NaN, NaN, 0.0323506, "- N/A -   "
8.15, 259.7026, 0.0137338, NaN, NaN, NaN, 0.0335714, "- N/A -   "
8.17, 260.174, 0.0137671, NaN, NaN, NaN, 0.0335714, "- N/A -   "
8.19, 260.763, 0.0138005, NaN, NaN, NaN, 0.0347922, "- N/A -   "
8.21, 261.352, 0.013831, NaN, NaN, NaN, 0.0347922, "- N/A -   "
8.23, 262.059, 0.0138643, NaN, NaN, NaN, 0.03601294, "- N/A -   "
8.25, 262.648, 0.0138949, NaN, NaN, NaN, 0.03601294, "- N/A -   "
8.27, 263.355, 0.0139282, NaN, NaN, NaN, 0.03601294, "- N/A -   "
8.29, 264.0622, 0.0139643, NaN, NaN, NaN, 0.0347922, "- N/A -   "
8.31, 264.6513, 0.01400316, NaN, NaN, NaN, 0.0335714, "- N/A -   "
8.33, 265.476, 0.0140393, NaN, NaN, NaN, 0.03112983, "- N/A -   "
8.35, 266.183, 0.0140754, NaN, NaN, NaN, 0.0299091, "- N/A -   "
8.37, 266.89, 0.0141087, NaN, NaN, NaN, 0.0299091, "- N/A -   "
8.39, 267.479, 0.0141392, NaN, NaN, NaN, 0.03112983, "- N/A -   "
8.41, 268.068, 0.0141725, NaN, NaN, NaN, 0.0323506, "- N/A -   "
8.43, 268.54, 0.0142003, NaN, NaN, NaN, 0.0335714, "- N/A -   "
8.45, 269.247, 0.0142336, NaN, NaN, NaN, 0.0335714, "- N/A -   "
8.47, 269.836, 0.014267, NaN, NaN, NaN, 0.0347922, "- N/A -   "
8.49, 270.425, 0.0142947, NaN, NaN, NaN, 0.03601294, "- N/A -   "
8.51, 270.8961, 0.0143225, NaN, NaN, NaN, 0.0396753, "- N/A -   "
8.53, 271.367, 0.0143503, NaN, NaN, NaN, 0.04089605, "- N/A -   "
8.55, 272.074, 0.0143808, NaN, NaN, NaN, 0.04211683, "- N/A -   "
8.57, 272.546, 0.0144086, NaN, NaN, NaN, 0.0445584, "- N/A -   "
8.59, 273.1348, 0.0144391, NaN, NaN, NaN, 0.04699994, "- N/A -   "
8.61, 273.7239, 0.0144697, NaN, NaN, NaN, 0.04699994, "- N/A -   "
8.63, 274.431, 0.014503, NaN, NaN, NaN, 0.04699994, "- N/A -   "
8.65, 275.138, 0.0145418, NaN, NaN, NaN, 0.04577916, "- N/A -   "
8.67, 275.963, 0.0145807, NaN, NaN, NaN, 0.04211683, "- N/A -   "
8.69, 276.787, 0.0146224, NaN, NaN, NaN, 0.0384545, "- N/A -   "
8.71, 277.494, 0.0146585, NaN, NaN, NaN, 0.0384545, "- N/A -   "
8.73, 278.2013, 0.0146918, NaN, NaN, NaN, 0.0372337, "- N/A -   "
8.75, 278.79, 0.0147279, NaN, NaN, NaN, 0.0372337, "- N/A -   "
[...]
33.33, 1235.4, 0.05568776, NaN, NaN, NaN, 0.0384545, "- N/A -   "
33.34, 1236, 0.05571, NaN, NaN, NaN, 0.0372337, "- N/A -   "
33.35, 1236.6, 0.05572941, NaN, NaN, NaN, 0.03601294, "- N/A -   "
33.39, 1238.62, 0.0558044, NaN, NaN, NaN, 0.03112983, "- N/A -   "
33.43, 1240.53, 0.0558794, NaN, NaN, NaN, 0.0286883, "- N/A -   "
33.47, 1242.2, 0.0559404, NaN, NaN, NaN, 0.0299091, "- N/A -   "
33.51, 1243.87, 0.0560071, NaN, NaN, NaN, 0.0299091, "- N/A -   "
33.55, 1245.42, 0.05607095, NaN, NaN, NaN, 0.0323506, "- N/A -   "
33.59, 1247.09, 0.05612926, NaN, NaN, NaN, 0.0347922, "- N/A -   "
33.63, 1248.52, 0.0561876, NaN, NaN, NaN, 0.0384545, "- N/A -   "
33.67, 1250.31, 0.0562598, NaN, NaN, NaN, 0.0372337, "- N/A -   "
33.71, 1252.22, 0.05632641, NaN, NaN, NaN, 0.03601294, "- N/A -   "
33.75, 1253.89, 0.0563903, NaN, NaN, NaN, 0.0372337, "- N/A -   "
33.79, 1255.44, 0.05644859, NaN, NaN, NaN, 0.04089605, "- N/A -   "
33.83, 1256.87, 0.05650968, NaN, NaN, NaN, 0.0445584, "- N/A -   "
33.87, 1258.54, 0.0565708, NaN, NaN, NaN, 0.04577916, "- N/A -   "
33.91, 1260.567, 0.0566485, NaN, NaN, NaN, 0.04089605, "- N/A -   "
33.95, 1262.83, 0.0567318, NaN, NaN, NaN, 0.0347922, "- N/A -   "
33.99, 1264.86, 0.05680679, NaN, NaN, NaN, 0.0299091, "- N/A -   "
34.03, 1266.53, 0.0568707, NaN, NaN, NaN, 0.03112983, "- N/A -   "
34.07, 1268.2, 0.0569373, NaN, NaN, NaN, 0.03112983, "- N/A -   "
34.11, 1269.51, 0.0569928, NaN, NaN, NaN, 0.03601294, "- N/A -   "
34.15, 1271.3, 0.0570567, NaN, NaN, NaN, 0.0384545, "- N/A -   "
34.19, 1273.09, 0.05712334, NaN, NaN, NaN, 0.0372337, "- N/A -   "
34.23, 1275, 0.0571955, NaN, NaN, NaN, 0.0347922, "- N/A -   "
34.27, 1277.02, 0.0572677, NaN, NaN, NaN, 0.0323506, "- N/A -   "
34.31, 1278.69, 0.05733437, NaN, NaN, NaN, 0.0335714, "- N/A -   "
34.35, 1280.24, 0.0573927, NaN, NaN, NaN, 0.03601294, "- N/A -   "
34.39, 1281.91, 0.05745933, NaN, NaN, NaN, 0.03601294, "- N/A -   "
34.43, 1283.58, 0.0575232, NaN, NaN, NaN, 0.0372337, "- N/A -   "
34.47, 1285.25, 0.0575898, NaN, NaN, NaN, 0.0372337, "- N/A -   "
34.51, 1287.041, 0.0576565, NaN, NaN, NaN, 0.0372337, "- N/A -   "
34.55, 1288.71, 0.0577176, NaN, NaN, NaN, 0.0396753, "- N/A -   "
34.59, 1290.38, 0.0577842, NaN, NaN, NaN, 0.0396753, "- N/A -   "
34.63, 1292.17, 0.0578536, NaN, NaN, NaN, 0.0384545, "- N/A -   "
34.67, 1293.96, 0.0579203, NaN, NaN, NaN, 0.0384545, "- N/A -   "
34.71, 1295.75, 0.0579897, NaN, NaN, NaN, 0.0384545, "- N/A -   "
34.75, 1297.54, 0.0580563, NaN, NaN, NaN, 0.0372337, "- N/A -   "
34.79, 1299.324, 0.05812575, NaN, NaN, NaN, 0.0372337, "- N/A -   "
34.83, 1301.11, 0.05819239, NaN, NaN, NaN, 0.0372337, "- N/A -   "
34.87, 1302.663, 0.0582563, NaN, NaN, NaN, 0.0372337, "- N/A -   "
34.91, 1304.69, 0.05832845, NaN, NaN, NaN, 0.0347922, "- N/A -   "
34.95, 1306.36, 0.0583951, NaN, NaN, NaN, 0.0347922, "- N/A -   "
34.99, 1308.03, 0.0584645, NaN, NaN, NaN, 0.0335714, "- N/A -   "
35.03, 1309.82, 0.0585312, NaN, NaN, NaN, 0.0335714, "- N/A -   "
35.07, 1311.61, 0.0585978, NaN, NaN, NaN, 0.0335714, "- N/A -   "
35.11, 1313.28, 0.0586617, NaN, NaN, NaN, 0.0347922, "- N/A -   "
35.15, 1314.83, 0.05872275, NaN, NaN, NaN, 0.0372337, "- N/A -   "
35.19, 1316.62, 0.0587866, NaN, NaN, NaN, 0.0384545, "- N/A -   "
35.23, 1318.05, 0.0588477, NaN, NaN, NaN, 0.04089605, "- N/A -   "
35.27, 1319.84, 0.05891157, NaN, NaN, NaN, 0.0433376, "- N/A -   "
35.31, 1321.624, 0.05897821, NaN, NaN, NaN, 0.0433376, "- N/A -   "
35.35, 1323.53, 0.0590532, NaN, NaN, NaN, 0.04089605, "- N/A -   "
35.39, 1325.68, 0.05913371, NaN, NaN, NaN, 0.0347922, "- N/A -   "
35.43, 1327.83, 0.0592087, NaN, NaN, NaN, 0.03112983, "- N/A -   "
35.47, 1329.38, 0.0592725, NaN, NaN, NaN, 0.03112983, "- N/A -   "
35.51, 1330.81, 0.0593336, NaN, NaN, NaN, 0.0335714, "- N/A -   "
35.55, 1332.6, 0.0594003, NaN, NaN, NaN, 0.0347922, "- N/A -   "
35.59, 1334.26, 0.0594669, NaN, NaN, NaN, 0.0335714, "- N/A -   "
35.63, 1336.41, 0.0595391, NaN, NaN, NaN, 0.03112983, "- N/A -   "
35.67, 1338.08, 0.05960576, NaN, NaN, NaN, 0.03112983, "- N/A -   "
35.71, 1339.75, 0.05966962, NaN, NaN, NaN, 0.0323506, "- N/A -   "
35.75, 1341.42, 0.0597307, NaN, NaN, NaN, 0.0347922, "- N/A -   "
35.79, 1342.851, 0.0597946, NaN, NaN, NaN, 0.0372337, "- N/A -   "
35.83, 1344.4, 0.05985011, NaN, NaN, NaN, 0.04089605, "- N/A -   "
35.87, 1345.713, 0.05990565, NaN, NaN, NaN, 0.04577916, "- N/A -   "
35.91, 1347.38, 0.05996951, NaN, NaN, NaN, 0.04699994, "- N/A -   "
35.95, 1349.17, 0.0600389, NaN, NaN, NaN, 0.04577916, "- N/A -   "
35.99, 1351.2, 0.0601167, NaN, NaN, NaN, 0.04089605, "- N/A -   "
36.03, 1353.11, 0.0601889, NaN, NaN, NaN, 0.0396753, "- N/A -   "
36.07, 1354.9, 0.0602583, NaN, NaN, NaN, 0.0384545, "- N/A -   "
36.11, 1356.68, 0.0603249, NaN, NaN, NaN, 0.0372337, "- N/A -   "
36.15, 1358.59, 0.0603944, NaN, NaN, NaN, 0.03601294, "- N/A -   "
36.19, 1360.62, 0.0604693, NaN, NaN, NaN, 0.0323506, "- N/A -   "
36.23, 1362.41, 0.06054152, NaN, NaN, NaN, 0.03112983, "- N/A -   "
36.27, 1364.197, 0.0606109, NaN, NaN, NaN, 0.0286883, "- N/A -   "
36.31, 1365.99, 0.06067758, NaN, NaN, NaN, 0.0286883, "- N/A -   "
36.35, 1367.42, 0.0607359, NaN, NaN, NaN, 0.0323506, "- N/A -   "
36.39, 1368.967, 0.06079421, NaN, NaN, NaN, 0.03601294, "- N/A -   "
36.43, 1370.4, 0.0608497, NaN, NaN, NaN, 0.04089605, "- N/A -   "
36.47, 1371.83, 0.0609081, NaN, NaN, NaN, 0.0445584, "- N/A -   "
36.51, 1373.618, 0.06097747, NaN, NaN, NaN, 0.0445584, "- N/A -   "
36.55, 1375.526, 0.06104689, NaN, NaN, NaN, 0.04211683, "- N/A -   "
36.59, 1377.31, 0.06111631, NaN, NaN, NaN, 0.04089605, "- N/A -   "
36.63, 1378.865, 0.0611802, NaN, NaN, NaN, 0.04211683, "- N/A -   "
36.67, 1380.65, 0.0612496, NaN, NaN, NaN, 0.04089605, "- N/A -   "
36.71, 1382.68, 0.0613246, NaN, NaN, NaN, 0.0384545, "- N/A -   "
36.75, 1384.83, 0.0614023, NaN, NaN, NaN, 0.0335714, "- N/A -   "
36.79, 1386.85, 0.0614801, NaN, NaN, NaN, 0.0286883, "- N/A -   "
36.83, 1388.52, 0.0615467, NaN, NaN, NaN, 0.0274675, "- N/A -   "
36.87, 1390.31, 0.0616106, NaN, NaN, NaN, 0.0286883, "- N/A -   "
36.91, 1391.86, 0.06167444, NaN, NaN, NaN, 0.03112983, "- N/A -   "
36.95, 1393.29, 0.06173275, NaN, NaN, NaN, 0.0335714, "- N/A -   "
36.99, 1394.96, 0.0617938, NaN, NaN, NaN, 0.0372337, "- N/A -   "
37.03, 1396.75, 0.06186048, NaN, NaN, NaN, 0.03601294, "- N/A -   "
37.07, 1398.54, 0.0619243, NaN, NaN, NaN, 0.0372337, "- N/A -   "
37.11, 1400.33, 0.0619938, NaN, NaN, NaN, 0.03601294, "- N/A -   "
37.15, 1401.76, 0.0620521, NaN, NaN, NaN, 0.0396753, "- N/A -   "
37.19, 1403.431, 0.06211594, NaN, NaN, NaN, 0.04211683, "- N/A -   "
37.23, 1404.98, 0.06217703, NaN, NaN, NaN, 0.0433376, "- N/A -   "
37.27, 1406.53, 0.0622353, NaN, NaN, NaN, 0.04699994, "- N/A -   "
37.31, 1408.32, 0.06230754, NaN, NaN, NaN, 0.04577916, "- N/A -   "
37.35, 1410.586, 0.0623825, NaN, NaN, NaN, 0.04089605, "- N/A -   "
37.39, 1412.61, 0.062463, NaN, NaN, NaN, 0.0347922, "- N/A -   "
37.43, 1414.52, 0.0625352, NaN, NaN, NaN, 0.0323506, "- N/A -   "
37.47, 1416.19, 0.06260187, NaN, NaN, NaN, 0.0335714, "- N/A -   "
37.51, 1417.622, 0.06266019, NaN, NaN, NaN, 0.03601294, "- N/A -   "
37.55, 1419.41, 0.06272405, NaN, NaN, NaN, 0.0372337, "- N/A -   "
37.59, 1421.08, 0.06279347, NaN, NaN, NaN, 0.0372337, "- N/A -   "
37.63, 1422.99, 0.06286289, NaN, NaN, NaN, 0.0347922, "- N/A -   "
37.67, 1424.9, 0.0629351, NaN, NaN, NaN, 0.0323506, "- N/A -   "
37.71, 1426.685, 0.06299895, NaN, NaN, NaN, 0.0335714, "- N/A -   "
37.75, 1428.24, 0.06306281, NaN, NaN, NaN, 0.0347922, "- N/A -   "
37.79, 1429.9, 0.0631239, NaN, NaN, NaN, 0.0372337, "- N/A -   "
37.83, 1431.22, 0.06317943, NaN, NaN, NaN, 0.04211683, "- N/A -   "
37.87, 1432.89, 0.0632433, NaN, NaN, NaN, 0.0433376, "- N/A -   "
37.91, 1435.03, 0.0633183, NaN, NaN, NaN, 0.0396753, "- N/A -   "
37.95, 1436.7, 0.06338769, NaN, NaN, NaN, 0.0384545, "- N/A -   "
37.99, 1438.491, 0.06345434, NaN, NaN, NaN, 0.0384545, "- N/A -   "
38.03, 1440.399, 0.0635238, NaN, NaN, NaN, 0.0372337, "- N/A -   "
38.07, 1442.19, 0.06359317, NaN, NaN, NaN, 0.03601294, "- N/A -   "
38.11, 1443.86, 0.06365704, NaN, NaN, NaN, 0.0372337, "- N/A -   "
38.15, 1445.65, 0.0637265, NaN, NaN, NaN, 0.03601294, "- N/A -   "
38.19, 1447.55, 0.06379865, NaN, NaN, NaN, 0.0335714, "- N/A -   "
38.23, 1449.58, 0.06387363, NaN, NaN, NaN, 0.0299091, "- N/A -   "
38.27, 1451.251, 0.06393749, NaN, NaN, NaN, 0.03112983, "- N/A -   "
38.31, 1452.92, 0.06400135, NaN, NaN, NaN, 0.0323506, "- N/A -   "
38.35, 1454.47, 0.064068, NaN, NaN, NaN, 0.0335714, "- N/A -   "
38.366, 1455.19, 0.06409299, NaN, NaN, NaN, 0.0335714, "- N/A -   "