File: 2_Tensile_Data/Hamel_ForceTest_Bolt8_Test6.csv
Time, Load (lb), Position (in), AxialStrain (in), TransverseStrain (in), Auxiliary (), Control Out (V), Stress (psi)
0.0, 7.430691, 0.0, NaN, NaN, NaN, -0.007935055, "- N/A -   "
0.01, 7.430691, 0.0, NaN, NaN, NaN, -6.103888E-4, "- N/A -   "
0.02, 7.548638, 0.0, NaN, NaN, NaN, 0.006714277, "- N/A -   "
0.03, 7.430691, 2.776752E-6, NaN, NaN, NaN, 0.0128182, "- N/A -   "
0.04, 7.548638, 2.776752E-6, NaN, NaN, NaN, 0.0299091, "- N/A -   "
0.05, 7.548638, 8.330256E-6, NaN, NaN, NaN, 0.04699994, "- N/A -   "
0.06, 7.666586, 1.94373e-05, NaN, NaN, NaN, 0.06164927, "- N/A -   "
0.07, 7.90248, 3.3321e-05, NaN, NaN, NaN, 0.0750778, "- N/A -   "
0.08, 8.37427, 5.5535e-05, NaN, NaN, NaN, 0.08606482, "- N/A -   "
0.09, 8.610166, 7.774905E-5, NaN, NaN, NaN, 0.09461027, "- N/A -   "
0.1, 8.964007, 0.000105517, NaN, NaN, NaN, 0.103156, "- N/A -   "
0.11, 9.435798, 0.000136061, NaN, NaN, NaN, 0.104376, "- N/A -   "
0.12, 9.78964, 0.000166605, NaN, NaN, NaN, 0.0982726, "- N/A -   "
0.13, 10.3794, 0.000194373, NaN, NaN, NaN, 0.09338949, "- N/A -   "
0.14, 10.73322, 2.193634E-4, NaN, NaN, NaN, 0.0897272, "- N/A -   "
0.15, 11.0871, 0.000244354, NaN, NaN, NaN, 0.08606482, "- N/A -   "
0.16, 11.4409, 0.000269345, NaN, NaN, NaN, 0.08240249, "- N/A -   "
0.17, 11.7947, 0.000294336, NaN, NaN, NaN, 0.0799609, "- N/A -   "
0.18, 12.14859, 3.165497E-4, NaN, NaN, NaN, 0.0762986, "- N/A -   "
0.19, 12.3845, 0.000338764, NaN, NaN, NaN, 0.0750778, "- N/A -   "
0.2, 12.7383, 0.000358201, NaN, NaN, NaN, 0.07263627, "- N/A -   "
0.21, 13.09217, 3.80415E-4, NaN, NaN, NaN, 0.0701947, "- N/A -   "
0.22, 13.3281, 0.000399852, NaN, NaN, NaN, 0.0689739, "- N/A -   "
0.23, 13.7999, 4.192895E-4, NaN, NaN, NaN, 0.06775316, "- N/A -   "
0.24, 13.9178, 4.387268E-4, NaN, NaN, NaN, 0.06653238, "- N/A -   "
0.25, 14.3896, 4.609408E-4, NaN, NaN, NaN, 0.0640908, "- N/A -   "
0.26, 14.6255, 0.000480378, NaN, NaN, NaN, 0.06287005, "- N/A -   "
0.27, 14.9793, 0.000502592, NaN, NaN, NaN, 0.0604285, "- N/A -   "
0.28, 15.3332, 5.248061E-4, NaN, NaN, NaN, 0.0579869, "- N/A -   "
0.29, 15.687, 5.470201E-4, NaN, NaN, NaN, 0.0555454, "- N/A -   "
0.3, 16.0409, 0.000569234, NaN, NaN, NaN, 0.0531038, "- N/A -   "
0.31, 16.27675, 0.000591448, NaN, NaN, NaN, 0.05066227, "- N/A -   "
0.32, 16.6306, 6.136621E-4, NaN, NaN, NaN, 0.0494415, "- N/A -   "
0.33, 16.9844, 6.330994E-4, NaN, NaN, NaN, 0.04699994, "- N/A -   "
0.34, 17.3383, 0.000655313, NaN, NaN, NaN, 0.0445584, "- N/A -   "
0.35, 17.6921, 0.000677527, NaN, NaN, NaN, 0.0433376, "- N/A -   "
0.36, 17.928, 6.969647E-4, NaN, NaN, NaN, 0.04211683, "- N/A -   "
0.37, 18.3998, 0.000716402, NaN, NaN, NaN, 0.0396753, "- N/A -   "
0.38, 18.6357, 0.000735839, NaN, NaN, NaN, 0.0396753, "- N/A -   "
0.39, 18.8716, 0.0007525, NaN, NaN, NaN, 0.0396753, "- N/A -   "
0.4, 19.1075, 7.691603E-4, NaN, NaN, NaN, 0.0384545, "- N/A -   "
0.41, 19.4613, 7.885975E-4, NaN, NaN, NaN, 0.0384545, "- N/A -   "
0.42, 19.6972, 0.000802481, NaN, NaN, NaN, 0.0384545, "- N/A -   "
0.43, 20.05107, 8.191418E-4, NaN, NaN, NaN, 0.0384545, "- N/A -   "
0.44, 20.169, 8.38579E-4, NaN, NaN, NaN, 0.0384545, "- N/A -   "
0.45, 20.52286, 8.524628E-4, NaN, NaN, NaN, 0.0384545, "- N/A -   "
0.46, 20.7588, 8.691233E-4, NaN, NaN, NaN, 0.0384545, "- N/A -   "
0.47, 20.99465, 8.857838E-4, NaN, NaN, NaN, 0.0384545, "- N/A -   "
0.48, 21.3485, 9.052211E-4, NaN, NaN, NaN, 0.0384545, "- N/A -   "
0.49, 21.5844, 9.218816E-4, NaN, NaN, NaN, 0.0384545, "- N/A -   "
0.5, 21.8203, 9.385421E-4, NaN, NaN, NaN, 0.0372337, "- N/A -   "
0.51, 22.1741, 0.000957979, NaN, NaN, NaN, 0.0372337, "- N/A -   "
0.52, 22.41, 9.746399E-4, NaN, NaN, NaN, 0.03601294, "- N/A -   "
0.53, 22.7639, 9.940772E-4, NaN, NaN, NaN, 0.0347922, "- N/A -   "
0.58, 24.29718, 0.00108571, NaN, NaN, NaN, 0.03112983, "- N/A -   "
0.63, 25.7125, 0.00117179, NaN, NaN, NaN, 0.0299091, "- N/A -   "
0.68, 26.892, 0.00124676, NaN, NaN, NaN, 0.0347922, "- N/A -   "
0.73, 27.95355, 0.0013134, NaN, NaN, NaN, 0.04089605, "- N/A -   "
0.78, 29.133, 0.00138838, NaN, NaN, NaN, 0.04577916, "- N/A -   "
0.83, 30.6663, 0.00147168, NaN, NaN, NaN, 0.04577916, "- N/A -   "
0.88, 32.1997, 0.00155776, NaN, NaN, NaN, 0.0445584, "- N/A -   "
0.93, 33.73298, 0.00164939, NaN, NaN, NaN, 0.0396753, "- N/A -   "
0.98, 35.2663, 0.00174102, NaN, NaN, NaN, 0.03601294, "- N/A -   "
1.03, 36.9176, 0.00182988, NaN, NaN, NaN, 0.0335714, "- N/A -   "
1.08, 38.3329, 0.001913182, NaN, NaN, NaN, 0.0335714, "- N/A -   "
1.13, 39.8662, 0.002002038, NaN, NaN, NaN, 0.03112983, "- N/A -   "
1.18, 41.39956, 0.00209089, NaN, NaN, NaN, 0.0299091, "- N/A -   "
1.23, 42.93288, 0.0021742, NaN, NaN, NaN, 0.0299091, "- N/A -   "
1.28, 44.34825, 0.002249169, NaN, NaN, NaN, 0.0323506, "- N/A -   "
1.33, 45.76362, 0.002326918, NaN, NaN, NaN, 0.03601294, "- N/A -   "
1.38, 46.9431, 0.00239634, NaN, NaN, NaN, 0.04089605, "- N/A -   "
1.43, 48.47641, 0.00247131, NaN, NaN, NaN, 0.0445584, "- N/A -   "
1.48, 50.0097, 0.00255461, NaN, NaN, NaN, 0.0445584, "- N/A -   "
1.53, 51.66099, 0.00263791, NaN, NaN, NaN, 0.04577916, "- N/A -   "
1.58, 53.3123, 0.00272122, NaN, NaN, NaN, 0.0445584, "- N/A -   "
1.63, 55.0815, 0.00281285, NaN, NaN, NaN, 0.04211683, "- N/A -   "
1.68, 56.9686, 0.002910036, NaN, NaN, NaN, 0.0347922, "- N/A -   "
1.73, 58.7378, 0.00300445, NaN, NaN, NaN, 0.0299091, "- N/A -   "
1.78, 60.3891, 0.003084971, NaN, NaN, NaN, 0.03112983, "- N/A -   "
1.83, 62.0404, 0.003168274, NaN, NaN, NaN, 0.0323506, "- N/A -   "
1.88, 63.6916, 0.003246023, NaN, NaN, NaN, 0.0335714, "- N/A -   "
1.93, 65.22495, 0.003323772, NaN, NaN, NaN, 0.03601294, "- N/A -   "
1.98, 66.87622, 0.003404298, NaN, NaN, NaN, 0.0372337, "- N/A -   "
2.03, 68.52748, 0.00349038, NaN, NaN, NaN, 0.03601294, "- N/A -   "
2.08, 70.29669, 0.00356813, NaN, NaN, NaN, 0.0384545, "- N/A -   "
2.13, 71.59412, 0.0036431, NaN, NaN, NaN, 0.0433376, "- N/A -   "
2.18, 73.36333, 0.00372362, NaN, NaN, NaN, 0.0433376, "- N/A -   "
2.23, 75.0146, 0.00380693, NaN, NaN, NaN, 0.0433376, "- N/A -   "
2.28, 77.0197, 0.00390689, NaN, NaN, NaN, 0.0372337, "- N/A -   "
2.33, 78.78891, 0.003995746, NaN, NaN, NaN, 0.0335714, "- N/A -   "
2.38, 80.794, 0.00409016, NaN, NaN, NaN, 0.0286883, "- N/A -   "
2.43, 82.32734, 0.00417068, NaN, NaN, NaN, 0.0299091, "- N/A -   "
2.48, 83.86065, 0.00424565, NaN, NaN, NaN, 0.0335714, "- N/A -   "
2.53, 85.39397, 0.00432063, NaN, NaN, NaN, 0.0372337, "- N/A -   "
2.58, 87.04523, 0.004409482, NaN, NaN, NaN, 0.0347922, "- N/A -   "
2.63, 88.9324, 0.004495561, NaN, NaN, NaN, 0.0335714, "- N/A -   "
2.68, 90.58366, 0.00457886, NaN, NaN, NaN, 0.0335714, "- N/A -   "
2.73, 92.117, 0.004656613, NaN, NaN, NaN, 0.0372337, "- N/A -   "
2.78, 93.53234, 0.004728808, NaN, NaN, NaN, 0.04089605, "- N/A -   "
2.83, 95.18361, 0.004812111, NaN, NaN, NaN, 0.04211683, "- N/A -   "
2.88, 96.83487, 0.00489541, NaN, NaN, NaN, 0.04211683, "- N/A -   "
2.93, 98.60408, 0.004978716, NaN, NaN, NaN, 0.04089605, "- N/A -   "
2.98, 100.3733, 0.005070349, NaN, NaN, NaN, 0.0384545, "- N/A -   "
3.03, 102.025, 0.00515365, NaN, NaN, NaN, 0.0372337, "- N/A -   "
3.08, 103.912, 0.005245284, NaN, NaN, NaN, 0.0335714, "- N/A -   "
3.13, 105.563, 0.00533136, NaN, NaN, NaN, 0.0323506, "- N/A -   "
3.18, 107.0963, 0.005414666, NaN, NaN, NaN, 0.0335714, "- N/A -   "
3.23, 108.63, 0.00549519, NaN, NaN, NaN, 0.0335714, "- N/A -   "
3.28, 110.281, 0.00557849, NaN, NaN, NaN, 0.0335714, "- N/A -   "
3.33, 111.8142, 0.00565902, NaN, NaN, NaN, 0.0347922, "- N/A -   "
3.38, 113.348, 0.0057451, NaN, NaN, NaN, 0.0347922, "- N/A -   "
3.43, 114.999, 0.00582563, NaN, NaN, NaN, 0.0347922, "- N/A -   "
3.48, 116.296, 0.0059006, NaN, NaN, NaN, 0.0384545, "- N/A -   "
3.53, 117.947, 0.0059839, NaN, NaN, NaN, 0.0396753, "- N/A -   "
3.58, 119.363, 0.006064426, NaN, NaN, NaN, 0.04089605, "- N/A -   "
3.63, 120.896, 0.006144952, NaN, NaN, NaN, 0.04211683, "- N/A -   "
3.68, 122.547, 0.006231031, NaN, NaN, NaN, 0.04089605, "- N/A -   "
3.73, 124.081, 0.006322664, NaN, NaN, NaN, 0.0372337, "- N/A -   "
3.78, 125.85, 0.006414297, NaN, NaN, NaN, 0.0335714, "- N/A -   "
3.83, 127.265, 0.006497599, NaN, NaN, NaN, 0.0335714, "- N/A -   "
3.88, 128.563, 0.00657535, NaN, NaN, NaN, 0.03601294, "- N/A -   "
3.93, 130.096, 0.006664205, NaN, NaN, NaN, 0.0335714, "- N/A -   "
3.98, 131.629, 0.00675584, NaN, NaN, NaN, 0.0299091, "- N/A -   "
4.03, 133.045, 0.006836363, NaN, NaN, NaN, 0.03112983, "- N/A -   "
4.08, 134.46, 0.006916889, NaN, NaN, NaN, 0.0335714, "- N/A -   "
4.13, 135.522, 0.00698908, NaN, NaN, NaN, 0.0384545, "- N/A -   "
4.18, 136.701, 0.00705573, NaN, NaN, NaN, 0.0445584, "- N/A -   "
4.23, 137.999, 0.007130699, NaN, NaN, NaN, 0.0482207, "- N/A -   "
4.28, 139.414, 0.007214, NaN, NaN, NaN, 0.0494415, "- N/A -   "
4.33, 141.183, 0.00731119, NaN, NaN, NaN, 0.0433376, "- N/A -   "
4.38, 142.716, 0.00740282, NaN, NaN, NaN, 0.0384545, "- N/A -   "
4.43, 144.25, 0.00749445, NaN, NaN, NaN, 0.0347922, "- N/A -   "
4.48, 145.783, 0.00758053, NaN, NaN, NaN, 0.0335714, "- N/A -   "
4.53, 147.198, 0.00767217, NaN, NaN, NaN, 0.0299091, "- N/A -   "
4.58, 148.732, 0.007758245, NaN, NaN, NaN, 0.0286883, "- N/A -   "
4.63, 150.147, 0.007844324, NaN, NaN, NaN, 0.0286883, "- N/A -   "
4.68, 151.445, 0.007919297, NaN, NaN, NaN, 0.03112983, "- N/A -   "
4.73, 152.742, 0.007994269, NaN, NaN, NaN, 0.0347922, "- N/A -   "
4.78, 153.8035, 0.008066464, NaN, NaN, NaN, 0.0396753, "- N/A -   "
4.83, 154.983, 0.008135883, NaN, NaN, NaN, 0.04577916, "- N/A -   "
4.88, 156.5163, 0.00822196, NaN, NaN, NaN, 0.0445584, "- N/A -   "
4.93, 158.0496, 0.008310818, NaN, NaN, NaN, 0.04211683, "- N/A -   "
4.98, 159.465, 0.008396898, NaN, NaN, NaN, 0.04211683, "- N/A -   "
5.03, 160.998, 0.008482977, NaN, NaN, NaN, 0.0396753, "- N/A -   "
5.08, 162.65, 0.008574611, NaN, NaN, NaN, 0.03601294, "- N/A -   "
5.13, 164.301, 0.00866624, NaN, NaN, NaN, 0.0323506, "- N/A -   "
5.18, 165.834, 0.008757875, NaN, NaN, NaN, 0.0286883, "- N/A -   "
5.23, 167.25, 0.008841178, NaN, NaN, NaN, 0.0286883, "- N/A -   "
5.28, 168.429, 0.008921703, NaN, NaN, NaN, 0.03112983, "- N/A -   "
5.33, 169.844, 0.008996677, NaN, NaN, NaN, 0.0335714, "- N/A -   "
5.38, 171.26, 0.009077202, NaN, NaN, NaN, 0.0347922, "- N/A -   "
5.43, 172.6751, 0.009160505, NaN, NaN, NaN, 0.0347922, "- N/A -   "
5.48, 173.973, 0.009238253, NaN, NaN, NaN, 0.0372337, "- N/A -   "
5.53, 175.27, 0.009310449, NaN, NaN, NaN, 0.04211683, "- N/A -   "
5.58, 176.567, 0.009390975, NaN, NaN, NaN, 0.0445584, "- N/A -   "
5.63, 177.865, 0.009465947, NaN, NaN, NaN, 0.04699994, "- N/A -   "
5.68, 179.634, 0.009563134, NaN, NaN, NaN, 0.04211683, "- N/A -   "
5.73, 181.403, 0.00966032, NaN, NaN, NaN, 0.0347922, "- N/A -   "
5.78, 183.054, 0.009751952, NaN, NaN, NaN, 0.0323506, "- N/A -   "
5.83, 184.47, 0.009835255, NaN, NaN, NaN, 0.03112983, "- N/A -   "
5.88, 185.767, 0.009913004, NaN, NaN, NaN, 0.0335714, "- N/A -   "
5.93, 186.947, 0.009990754, NaN, NaN, NaN, 0.03601294, "- N/A -   "
5.98, 188.598, 0.0100768, NaN, NaN, NaN, 0.0347922, "- N/A -   "
6.03, 190.131, 0.0101685, NaN, NaN, NaN, 0.0323506, "- N/A -   "
6.08, 191.547, 0.010249, NaN, NaN, NaN, 0.0323506, "- N/A -   "
6.13, 192.726, 0.0103212, NaN, NaN, NaN, 0.0372337, "- N/A -   "
6.18, 194.024, 0.0103934, NaN, NaN, NaN, 0.04211683, "- N/A -   "
6.23, 195.5569, 0.0104767, NaN, NaN, NaN, 0.04211683, "- N/A -   "
6.28, 197.09, 0.0105655, NaN, NaN, NaN, 0.0396753, "- N/A -   "
6.33, 198.624, 0.0106488, NaN, NaN, NaN, 0.04089605, "- N/A -   "
6.38, 200.157, 0.0107377, NaN, NaN, NaN, 0.0372337, "- N/A -   "
6.43, 201.69, 0.010821, NaN, NaN, NaN, 0.0372337, "- N/A -   "
6.48, 203.106, 0.0109015, NaN, NaN, NaN, 0.0384545, "- N/A -   "
6.53, 204.639, 0.0109876, NaN, NaN, NaN, 0.0372337, "- N/A -   "
6.58, 206.408, 0.011082, NaN, NaN, NaN, 0.0323506, "- N/A -   "
6.63, 207.941, 0.0111709, NaN, NaN, NaN, 0.03112983, "- N/A -   "
6.68, 209.357, 0.0112514, NaN, NaN, NaN, 0.0323506, "- N/A -   "
6.73, 210.772, 0.0113291, NaN, NaN, NaN, 0.0335714, "- N/A -   "
6.78, 212.305, 0.0114125, NaN, NaN, NaN, 0.0335714, "- N/A -   "
6.83, 213.839, 0.0114985, NaN, NaN, NaN, 0.0323506, "- N/A -   "
6.88, 215.018, 0.0115707, NaN, NaN, NaN, 0.0372337, "- N/A -   "
6.93, 216.316, 0.0116485, NaN, NaN, NaN, 0.04089605, "- N/A -   "
6.98, 217.849, 0.0117234, NaN, NaN, NaN, 0.0433376, "- N/A -   "
6.99, 218.085, 0.0117401, NaN, NaN, NaN, 0.0433376, "- N/A -   "
7, 218.321, 0.011754, NaN, NaN, NaN, 0.0445584, "- N/A -   "
7.01, 218.557, 0.0117734, NaN, NaN, NaN, 0.0445584, "- N/A -   "
7.02, 218.9105, 0.0117873, NaN, NaN, NaN, 0.0445584, "- N/A -   "
7.03, 219.264, 0.011804, NaN, NaN, NaN, 0.0445584, "- N/A -   "
7.04, 219.5, 0.0118206, NaN, NaN, NaN, 0.0445584, "- N/A -   "
7.05, 219.736, 0.0118373, NaN, NaN, NaN, 0.0445584, "- N/A -   "
7.06, 220.09, 0.011854, NaN, NaN, NaN, 0.0445584, "- N/A -   "
7.07, 220.444, 0.0118706, NaN, NaN, NaN, 0.0445584, "- N/A -   "
7.08, 220.798, 0.0118873, NaN, NaN, NaN, 0.0445584, "- N/A -   "
7.09, 221.152, 0.0119067, NaN, NaN, NaN, 0.0445584, "- N/A -   "
7.1, 221.505, 0.0119234, NaN, NaN, NaN, 0.0433376, "- N/A -   "
7.11, 221.741, 0.0119428, NaN, NaN, NaN, 0.0433376, "- N/A -   "
7.12, 222.213, 0.0119622, NaN, NaN, NaN, 0.04211683, "- N/A -   "
7.13, 222.449, 0.0119817, NaN, NaN, NaN, 0.0396753, "- N/A -   "
7.14, 222.803, 0.0120011, NaN, NaN, NaN, 0.0384545, "- N/A -   "
7.15, 223.157, 0.0120206, NaN, NaN, NaN, 0.0372337, "- N/A -   "
7.16, 223.51, 0.0120372, NaN, NaN, NaN, 0.0372337, "- N/A -   "
7.17, 223.8643, 0.0120567, NaN, NaN, NaN, 0.0372337, "- N/A -   "
7.18, 224.218, 0.0120733, NaN, NaN, NaN, 0.03601294, "- N/A -   "
7.19, 224.572, 0.0120928, NaN, NaN, NaN, 0.03601294, "- N/A -   "
7.2, 224.926, 0.0121094, NaN, NaN, NaN, 0.0347922, "- N/A -   "
7.21, 225.28, 0.0121289, NaN, NaN, NaN, 0.0335714, "- N/A -   "
7.22, 225.6335, 0.0121455, NaN, NaN, NaN, 0.0335714, "- N/A -   "
7.23, 225.8694, 0.0121649, NaN, NaN, NaN, 0.0335714, "- N/A -   "
7.24, 226.1053, 0.0121788, NaN, NaN, NaN, 0.0335714, "- N/A -   "
7.25, 226.3412, 0.0121927, NaN, NaN, NaN, 0.0347922, "- N/A -   "
7.26, 226.577, 0.0122094, NaN, NaN, NaN, 0.0347922, "- N/A -   "
7.27, 226.931, 0.012226, NaN, NaN, NaN, 0.0347922, "- N/A -   "
7.28, 227.285, 0.0122427, NaN, NaN, NaN, 0.0347922, "- N/A -   "
7.29, 227.639, 0.0122594, NaN, NaN, NaN, 0.0347922, "- N/A -   "
7.3, 227.992, 0.01227602, NaN, NaN, NaN, 0.0347922, "- N/A -   "
7.31, 228.228, 0.0122955, NaN, NaN, NaN, 0.0335714, "- N/A -   "
7.32, 228.5822, 0.0123121, NaN, NaN, NaN, 0.0335714, "- N/A -   "
7.33, 228.936, 0.0123288, NaN, NaN, NaN, 0.0335714, "- N/A -   "
7.34, 229.29, 0.0123482, NaN, NaN, NaN, 0.0335714, "- N/A -   "
7.35, 229.644, 0.0123649, NaN, NaN, NaN, 0.0323506, "- N/A -   "
7.36, 229.998, 0.0123843, NaN, NaN, NaN, 0.03112983, "- N/A -   "
7.37, 230.351, 0.0124065, NaN, NaN, NaN, 0.0299091, "- N/A -   "
7.38, 230.8232, 0.0124232, NaN, NaN, NaN, 0.0286883, "- N/A -   "
7.39, 231.0591, 0.0124426, NaN, NaN, NaN, 0.0274675, "- N/A -   "
7.4, 231.413, 0.0124621, NaN, NaN, NaN, 0.0274675, "- N/A -   "
7.41, 231.767, 0.0124787, NaN, NaN, NaN, 0.0262467, "- N/A -   "
7.42, 232.003, 0.0124954, NaN, NaN, NaN, 0.0262467, "- N/A -   "
7.43, 232.357, 0.012512, NaN, NaN, NaN, 0.0262467, "- N/A -   "
7.44, 232.592, 0.0125259, NaN, NaN, NaN, 0.0274675, "- N/A -   "
7.45, 232.71, 0.0125398, NaN, NaN, NaN, 0.0286883, "- N/A -   "
7.46, 233.0642, 0.0125565, NaN, NaN, NaN, 0.0299091, "- N/A -   "
7.47, 233.3001, 0.0125704, NaN, NaN, NaN, 0.0299091, "- N/A -   "
7.48, 233.654, 0.01258424, NaN, NaN, NaN, 0.03112983, "- N/A -   "
7.49, 233.772, 0.0126009, NaN, NaN, NaN, 0.03112983, "- N/A -   "
7.5, 234.126, 0.0126148, NaN, NaN, NaN, 0.0323506, "- N/A -   "
7.51, 234.244, 0.0126287, NaN, NaN, NaN, 0.0347922, "- N/A -   "
7.52, 234.598, 0.0126426, NaN, NaN, NaN, 0.03601294, "- N/A -   "
7.53, 234.833, 0.0126537, NaN, NaN, NaN, 0.0372337, "- N/A -   "
7.54, 234.951, 0.0126675, NaN, NaN, NaN, 0.0384545, "- N/A -   "
7.55, 235.187, 0.0126814, NaN, NaN, NaN, 0.0396753, "- N/A -   "
7.56, 235.423, 0.01269531, NaN, NaN, NaN, 0.04089605, "- N/A -   "
7.57, 235.777, 0.01271197, NaN, NaN, NaN, 0.04211683, "- N/A -   "
7.58, 236.0129, 0.0127259, NaN, NaN, NaN, 0.04211683, "- N/A -   "
7.59, 236.367, 0.0127397, NaN, NaN, NaN, 0.0433376, "- N/A -   "
7.6, 236.603, 0.0127536, NaN, NaN, NaN, 0.0445584, "- N/A -   "
7.61, 236.839, 0.0127703, NaN, NaN, NaN, 0.0445584, "- N/A -   "
7.62, 237.192, 0.0127869, NaN, NaN, NaN, 0.0445584, "- N/A -   "
7.63, 237.428, 0.0128008, NaN, NaN, NaN, 0.04577916, "- N/A -   "
7.64, 237.664, 0.0128175, NaN, NaN, NaN, 0.04577916, "- N/A -   "
7.65, 238.018, 0.0128341, NaN, NaN, NaN, 0.04577916, "- N/A -   "
7.66, 238.372, 0.0128508, NaN, NaN, NaN, 0.04577916, "- N/A -   "
7.67, 238.726, 0.0128675, NaN, NaN, NaN, 0.04577916, "- N/A -   "
7.68, 239.08, 0.0128841, NaN, NaN, NaN, 0.04577916, "- N/A -   "
7.69, 239.433, 0.01290079, NaN, NaN, NaN, 0.04577916, "- N/A -   "
7.7, 239.787, 0.0129202, NaN, NaN, NaN, 0.0445584, "- N/A -   "
7.71, 240.141, 0.0129369, NaN, NaN, NaN, 0.0445584, "- N/A -   "
7.72, 240.495, 0.0129563, NaN, NaN, NaN, 0.0433376, "- N/A -   "
7.73, 240.849, 0.0129758, NaN, NaN, NaN, 0.04211683, "- N/A -   "
7.74, 241.203, 0.012998, NaN, NaN, NaN, 0.04089605, "- N/A -   "
[...]
16.73, 574.8878, 0.0279897, NaN, NaN, NaN, 0.03601294, "- N/A -   "
16.9, 582.103, 0.0282784, NaN, NaN, NaN, 0.0347922, "- N/A -   "
17.07, 589.2, 0.0285589, NaN, NaN, NaN, 0.0347922, "- N/A -   "
17.24, 595.8235, 0.0288199, NaN, NaN, NaN, 0.04577916, "- N/A -   "
17.41, 603.985, 0.02913368, NaN, NaN, NaN, 0.0323506, "- N/A -   "
17.58, 611.2, 0.0294225, NaN, NaN, NaN, 0.03112983, "- N/A -   "
17.75, 618.4151, 0.02969736, NaN, NaN, NaN, 0.0335714, "- N/A -   "
17.92, 624.8023, 0.02995, NaN, NaN, NaN, 0.04699994, "- N/A -   "
18.09, 632.8454, 0.03026104, NaN, NaN, NaN, 0.03601294, "- N/A -   "
18.26, 640.2971, 0.0305526, NaN, NaN, NaN, 0.03112983, "- N/A -   "
18.43, 646.9208, 0.0308164, NaN, NaN, NaN, 0.0396753, "- N/A -   "
18.6, 654.018, 0.0310885, NaN, NaN, NaN, 0.0445584, "- N/A -   "
18.77, 662.4156, 0.03140506, NaN, NaN, NaN, 0.0299091, "- N/A -   "
18.94, 669.512, 0.0316855, NaN, NaN, NaN, 0.03112983, "- N/A -   "
19.11, 676.6093, 0.0319604, NaN, NaN, NaN, 0.0347922, "- N/A -   "
19.28, 683.351, 0.03222143, NaN, NaN, NaN, 0.04577916, "- N/A -   "
19.45, 691.7492, 0.03253798, NaN, NaN, NaN, 0.03112983, "- N/A -   "
19.62, 698.7278, 0.0328045, NaN, NaN, NaN, 0.0372337, "- N/A -   "
19.79, 706.0612, 0.0330878, NaN, NaN, NaN, 0.0372337, "- N/A -   "
19.96, 713.395, 0.0333682, NaN, NaN, NaN, 0.0396753, "- N/A -   "
20.13, 721.0829, 0.0336598, NaN, NaN, NaN, 0.0347922, "- N/A -   "
20.3, 728.7712, 0.03395412, NaN, NaN, NaN, 0.0299091, "- N/A -   "
20.47, 736.105, 0.0342318, NaN, NaN, NaN, 0.0323506, "- N/A -   "
20.64, 742.847, 0.03449, NaN, NaN, NaN, 0.0433376, "- N/A -   "
20.81, 751.008, 0.0347927, NaN, NaN, NaN, 0.0347922, "- N/A -   "
20.98, 758.5779, 0.0350787, NaN, NaN, NaN, 0.0347922, "- N/A -   "
21.15, 766.0296, 0.0353619, NaN, NaN, NaN, 0.0335714, "- N/A -   "
21.32, 772.6533, 0.03561184, NaN, NaN, NaN, 0.0482207, "- N/A -   "
21.49, 781.0513, 0.0359256, NaN, NaN, NaN, 0.0347922, "- N/A -   "
21.66, 789.094, 0.03622828, NaN, NaN, NaN, 0.0262467, "- N/A -   "
21.83, 795.7181, 0.0364837, NaN, NaN, NaN, 0.0396753, "- N/A -   "
22, 802.9332, 0.03675309, NaN, NaN, NaN, 0.04577916, "- N/A -   "
22.17, 811.2129, 0.0370641, NaN, NaN, NaN, 0.0335714, "- N/A -   "
22.34, 818.783, 0.0373473, NaN, NaN, NaN, 0.0335714, "- N/A -   "
22.51, 825.998, 0.0376167, NaN, NaN, NaN, 0.0396753, "- N/A -   "
22.68, 833.3314, 0.03788878, NaN, NaN, NaN, 0.04577916, "- N/A -   "
22.85, 841.9659, 0.0382081, NaN, NaN, NaN, 0.0286883, "- N/A -   "
23.02, 848.9445, 0.03847745, NaN, NaN, NaN, 0.03601294, "- N/A -   "
23.19, 856.3961, 0.03875513, NaN, NaN, NaN, 0.0384545, "- N/A -   "
23.36, 863.848, 0.0390328, NaN, NaN, NaN, 0.0396753, "- N/A -   "
23.53, 871.773, 0.0393271, NaN, NaN, NaN, 0.03601294, "- N/A -   "
23.7, 879.4609, 0.0396131, NaN, NaN, NaN, 0.0347922, "- N/A -   "
23.87, 887.0309, 0.0398936, NaN, NaN, NaN, 0.0347922, "- N/A -   "
24.04, 894.128, 0.04015739, NaN, NaN, NaN, 0.0433376, "- N/A -   "
24.21, 902.2891, 0.0404601, NaN, NaN, NaN, 0.0347922, "- N/A -   "
24.38, 910.096, 0.04075161, NaN, NaN, NaN, 0.03112983, "- N/A -   "
24.55, 917.547, 0.04102929, NaN, NaN, NaN, 0.0335714, "- N/A -   "
24.72, 924.2894, 0.0412847, NaN, NaN, NaN, 0.04577916, "- N/A -   "
24.89, 932.6873, 0.04159019, NaN, NaN, NaN, 0.03601294, "- N/A -   "
25.06, 940.8487, 0.0418929, NaN, NaN, NaN, 0.0286883, "- N/A -   "
25.23, 947.591, 0.0421511, NaN, NaN, NaN, 0.0384545, "- N/A -   "
25.4, 954.9241, 0.0424232, NaN, NaN, NaN, 0.0433376, "- N/A -   "
25.57, 963.322, 0.0427342, NaN, NaN, NaN, 0.03112983, "- N/A -   "
25.74, 971.129, 0.04302577, NaN, NaN, NaN, 0.0286883, "- N/A -   "
25.91, 978.3437, 0.0432951, NaN, NaN, NaN, 0.0347922, "- N/A -   "
26.08, 985.204, 0.0435506, NaN, NaN, NaN, 0.04577916, "- N/A -   "
26.25, 993.6019, 0.0438588, NaN, NaN, NaN, 0.03601294, "- N/A -   "
26.42, 1001.29, 0.04413925, NaN, NaN, NaN, 0.0372337, "- N/A -   "
26.59, 1008.86, 0.0444253, NaN, NaN, NaN, 0.03601294, "- N/A -   "
26.76, 1016.34, 0.04470293, NaN, NaN, NaN, 0.0384545, "- N/A -   "
26.93, 1024.21, 0.0449917, NaN, NaN, NaN, 0.03601294, "- N/A -   "
27.1, 1032.08, 0.04527772, NaN, NaN, NaN, 0.0347922, "- N/A -   "
27.27, 1040.31, 0.04557483, NaN, NaN, NaN, 0.0299091, "- N/A -   "
27.44, 1046.75, 0.04582196, NaN, NaN, NaN, 0.0445584, "- N/A -   "
27.61, 1054.98, 0.04611352, NaN, NaN, NaN, 0.04089605, "- N/A -   "
27.78, 1063.21, 0.0464162, NaN, NaN, NaN, 0.0323506, "- N/A -   "
27.95, 1070.84, 0.0466966, NaN, NaN, NaN, 0.0335714, "- N/A -   "
28.12, 1077.52, 0.0469493, NaN, NaN, NaN, 0.04699994, "- N/A -   "
28.29, 1086.22, 0.0472603, NaN, NaN, NaN, 0.0347922, "- N/A -   "
28.46, 1094.57, 0.04755743, NaN, NaN, NaN, 0.0286883, "- N/A -   "
28.63, 1101.6, 0.047824, NaN, NaN, NaN, 0.03601294, "- N/A -   "
28.8, 1108.64, 0.048085, NaN, NaN, NaN, 0.04577916, "- N/A -   "
28.97, 1117.11, 0.04838768, NaN, NaN, NaN, 0.0372337, "- N/A -   "
29.14, 1125.22, 0.04868479, NaN, NaN, NaN, 0.03112983, "- N/A -   "
29.31, 1132.85, 0.04895969, NaN, NaN, NaN, 0.0347922, "- N/A -   "
29.48, 1139.88, 0.0492207, NaN, NaN, NaN, 0.0445584, "- N/A -   "
29.65, 1148.23, 0.0495289, NaN, NaN, NaN, 0.0335714, "- N/A -   "
29.82, 1156.1, 0.0498094, NaN, NaN, NaN, 0.0347922, "- N/A -   "
29.99, 1163.73, 0.05008983, NaN, NaN, NaN, 0.0372337, "- N/A -   "
30.16, 1171.01, 0.05036195, NaN, NaN, NaN, 0.04089605, "- N/A -   "
30.33, 1179.24, 0.0506563, NaN, NaN, NaN, 0.03601294, "- N/A -   "
30.5, 1187.11, 0.05094507, NaN, NaN, NaN, 0.0335714, "- N/A -   "
30.67, 1194.86, 0.0512311, NaN, NaN, NaN, 0.0323506, "- N/A -   "
30.84, 1202.13, 0.0514976, NaN, NaN, NaN, 0.04211683, "- N/A -   "
31.01, 1210.24, 0.051792, NaN, NaN, NaN, 0.03601294, "- N/A -   "
31.18, 1217.87, 0.05207243, NaN, NaN, NaN, 0.0372337, "- N/A -   "
31.35, 1226.1, 0.0523723, NaN, NaN, NaN, 0.0299091, "- N/A -   "
31.52, 1232.66, 0.0526167, NaN, NaN, NaN, 0.04699994, "- N/A -   "
31.69, 1241.25, 0.05292489, NaN, NaN, NaN, 0.03601294, "- N/A -   "
31.86, 1249.36, 0.053222, NaN, NaN, NaN, 0.0299091, "- N/A -   "
32.03, 1256.63, 0.05349135, NaN, NaN, NaN, 0.03601294, "- N/A -   "
32.2, 1263.79, 0.05375792, NaN, NaN, NaN, 0.0433376, "- N/A -   "
32.37, 1272.02, 0.0540606, NaN, NaN, NaN, 0.0347922, "- N/A -   "
32.54, 1280.24, 0.0543577, NaN, NaN, NaN, 0.0286883, "- N/A -   "
32.71, 1287.4, 0.0546215, NaN, NaN, NaN, 0.0372337, "- N/A -   "
32.88, 1294.554, 0.0548881, NaN, NaN, NaN, 0.0445584, "- N/A -   "
33.05, 1303.14, 0.05519905, NaN, NaN, NaN, 0.0335714, "- N/A -   "
33.22, 1310.77, 0.05547673, NaN, NaN, NaN, 0.0347922, "- N/A -   "
33.39, 1318.52, 0.0557627, NaN, NaN, NaN, 0.0347922, "- N/A -   "
33.56, 1325.68, 0.0560293, NaN, NaN, NaN, 0.04089605, "- N/A -   "
33.73, 1333.79, 0.0563236, NaN, NaN, NaN, 0.03601294, "- N/A -   "
33.9, 1341.897, 0.056618, NaN, NaN, NaN, 0.03112983, "- N/A -   "
34.07, 1349.41, 0.0568956, NaN, NaN, NaN, 0.0347922, "- N/A -   "
34.24, 1356.565, 0.0571622, NaN, NaN, NaN, 0.04211683, "- N/A -   "
34.41, 1364.44, 0.05744822, NaN, NaN, NaN, 0.0396753, "- N/A -   "
34.58, 1372.664, 0.05774811, NaN, NaN, NaN, 0.0323506, "- N/A -   "
34.75, 1380.65, 0.0580369, NaN, NaN, NaN, 0.0299091, "- N/A -   "
34.92, 1387.21, 0.0582812, NaN, NaN, NaN, 0.04699994, "- N/A -   "
35.09, 1395.68, 0.0585895, NaN, NaN, NaN, 0.03601294, "- N/A -   "
35.26, 1404.03, 0.0588894, NaN, NaN, NaN, 0.0286883, "- N/A -   "
35.43, 1411.42, 0.0591615, NaN, NaN, NaN, 0.0347922, "- N/A -   "
35.6, 1418.46, 0.05942527, NaN, NaN, NaN, 0.0445584, "- N/A -   "
35.77, 1426.33, 0.0597113, NaN, NaN, NaN, 0.04211683, "- N/A -   "
35.94, 1434.79, 0.0600195, NaN, NaN, NaN, 0.03112983, "- N/A -   "
36.11, 1442.07, 0.0602916, NaN, NaN, NaN, 0.03601294, "- N/A -   "
36.28, 1449.1, 0.0605526, NaN, NaN, NaN, 0.04577916, "- N/A -   "
36.45, 1457.69, 0.0608636, NaN, NaN, NaN, 0.0335714, "- N/A -   "
36.62, 1465.2, 0.0611469, NaN, NaN, NaN, 0.0335714, "- N/A -   "
36.79, 1472.84, 0.0614273, NaN, NaN, NaN, 0.0347922, "- N/A -   "
36.96, 1479.99, 0.0616967, NaN, NaN, NaN, 0.04211683, "- N/A -   "
37.13, 1487.86, 0.06197988, NaN, NaN, NaN, 0.04089605, "- N/A -   "
37.3, 1495.85, 0.06227977, NaN, NaN, NaN, 0.0347922, "- N/A -   "
37.47, 1503.48, 0.0625658, NaN, NaN, NaN, 0.0323506, "- N/A -   "
37.64, 1510.76, 0.06283512, NaN, NaN, NaN, 0.0396753, "- N/A -   "
37.81, 1518.15, 0.06311002, NaN, NaN, NaN, 0.0433376, "- N/A -   "
37.98, 1526.38, 0.06341824, NaN, NaN, NaN, 0.0323506, "- N/A -   "
38.15, 1534.131, 0.0637015, NaN, NaN, NaN, 0.03112983, "- N/A -   "
38.32, 1540.81, 0.0639597, NaN, NaN, NaN, 0.04211683, "- N/A -   "
38.383, 1543.31, 0.06405689, NaN, NaN, NaN, 0.04577916, "- N/A -   "