File: 2_Tensile_Data/Hamel_ForceTest_Bolt9_Test10.csv
Time, Load (lb), Position (in), AxialStrain (in), TransverseStrain (in), Auxiliary (), Control Out (V), Stress (psi)
0.0, 13.7999, 0.0, NaN, NaN, NaN, -0.006714277, "- N/A -   "
0.01, 13.7999, 2.776752E-6, NaN, NaN, NaN, -6.103888E-4, "- N/A -   "
0.02, 13.7999, 2.776752E-6, NaN, NaN, NaN, 0.007935055, "- N/A -   "
0.03, 13.7999, 2.776752E-6, NaN, NaN, NaN, 0.0274675, "- N/A -   "
0.04, 13.7999, 8.330256E-6, NaN, NaN, NaN, 0.0445584, "- N/A -   "
0.05, 14.0357, 2.2214e-05, NaN, NaN, NaN, 0.0592077, "- N/A -   "
0.06, 14.3896, 3.60978e-05, NaN, NaN, NaN, 0.07141549, "- N/A -   "
0.07, 14.8614, 6.108854E-5, NaN, NaN, NaN, 0.08118171, "- N/A -   "
0.08, 15.2152, 8.33026e-05, NaN, NaN, NaN, 0.0897272, "- N/A -   "
0.09, 15.687, 0.00011107, NaN, NaN, NaN, 0.09705182, "- N/A -   "
0.1, 16.1588, 0.000141614, NaN, NaN, NaN, 0.100714, "- N/A -   "
0.11, 16.6306, 0.000172159, NaN, NaN, NaN, 0.09461027, "- N/A -   "
0.12, 17.2203, 0.000202703, NaN, NaN, NaN, 0.0897272, "- N/A -   "
0.13, 17.5742, 0.000227694, NaN, NaN, NaN, 0.084844, "- N/A -   "
0.14, 17.928, 0.000255461, NaN, NaN, NaN, 0.0799609, "- N/A -   "
0.15, 18.2819, 0.000280452, NaN, NaN, NaN, 0.07751938, "- N/A -   "
0.16, 18.6357, 2.998892E-4, NaN, NaN, NaN, 0.0750778, "- N/A -   "
0.17, 18.8716, 3.221032E-4, NaN, NaN, NaN, 0.07263627, "- N/A -   "
0.18, 19.1075, 0.00034154, NaN, NaN, NaN, 0.07141549, "- N/A -   "
0.19, 19.4613, 0.000360978, NaN, NaN, NaN, 0.0701947, "- N/A -   "
0.2, 19.6972, 0.000383192, NaN, NaN, NaN, 0.06775316, "- N/A -   "
0.21, 20.05107, 0.000402629, NaN, NaN, NaN, 0.06653238, "- N/A -   "
0.22, 20.287, 0.000422066, NaN, NaN, NaN, 0.0653116, "- N/A -   "
0.23, 20.6408, 0.000441504, NaN, NaN, NaN, 0.0653116, "- N/A -   "
0.24, 20.7588, 4.609408E-4, NaN, NaN, NaN, 0.0640908, "- N/A -   "
0.25, 21.1126, 0.000480378, NaN, NaN, NaN, 0.06287005, "- N/A -   "
0.26, 21.46644, 0.000499815, NaN, NaN, NaN, 0.06164927, "- N/A -   "
0.27, 21.7023, 5.164758E-4, NaN, NaN, NaN, 0.0604285, "- N/A -   "
0.28, 22.0562, 5.359131E-4, NaN, NaN, NaN, 0.0592077, "- N/A -   "
0.29, 22.29207, 5.553504E-4, NaN, NaN, NaN, 0.0579869, "- N/A -   "
0.3, 22.528, 5.747876E-4, NaN, NaN, NaN, 0.05676616, "- N/A -   "
0.31, 22.7639, 0.000597002, NaN, NaN, NaN, 0.0555454, "- N/A -   "
0.32, 22.9998, 6.164389E-4, NaN, NaN, NaN, 0.0543246, "- N/A -   "
0.33, 23.3536, 0.000635876, NaN, NaN, NaN, 0.05188305, "- N/A -   "
0.34, 23.7074, 0.00065809, NaN, NaN, NaN, 0.05066227, "- N/A -   "
0.35, 24.0613, 0.000677527, NaN, NaN, NaN, 0.0494415, "- N/A -   "
0.36, 24.4151, 6.997415E-4, NaN, NaN, NaN, 0.04577916, "- N/A -   "
0.37, 24.65102, 7.191787E-4, NaN, NaN, NaN, 0.0445584, "- N/A -   "
0.38, 24.8869, 7.38616E-4, NaN, NaN, NaN, 0.0433376, "- N/A -   "
0.39, 25.1228, 0.000758053, NaN, NaN, NaN, 0.04211683, "- N/A -   "
0.4, 25.4767, 0.000774714, NaN, NaN, NaN, 0.04211683, "- N/A -   "
0.41, 25.5946, 0.000794151, NaN, NaN, NaN, 0.04089605, "- N/A -   "
0.42, 25.8305, 0.000813588, NaN, NaN, NaN, 0.04089605, "- N/A -   "
0.43, 26.18434, 8.302488E-4, NaN, NaN, NaN, 0.0396753, "- N/A -   "
0.44, 26.3023, 8.469093E-4, NaN, NaN, NaN, 0.0396753, "- N/A -   "
0.45, 26.5382, 8.635698E-4, NaN, NaN, NaN, 0.0396753, "- N/A -   "
0.46, 26.7741, 8.830071E-4, NaN, NaN, NaN, 0.0396753, "- N/A -   "
0.47, 27.1279, 0.000899668, NaN, NaN, NaN, 0.0384545, "- N/A -   "
0.48, 27.3638, 9.163281E-4, NaN, NaN, NaN, 0.0384545, "- N/A -   "
0.49, 27.5997, 0.000935765, NaN, NaN, NaN, 0.0372337, "- N/A -   "
0.5, 27.8356, 9.524259E-4, NaN, NaN, NaN, 0.0372337, "- N/A -   "
0.51, 28.1894, 0.000971863, NaN, NaN, NaN, 0.03601294, "- N/A -   "
0.56, 29.4869, 0.00106627, NaN, NaN, NaN, 0.03112983, "- N/A -   "
0.61, 30.78429, 0.001152352, NaN, NaN, NaN, 0.0299091, "- N/A -   "
0.66, 31.9638, 0.00123843, NaN, NaN, NaN, 0.0286883, "- N/A -   "
0.71, 32.9073, 0.00130785, NaN, NaN, NaN, 0.0347922, "- N/A -   "
0.76, 33.8509, 0.00137727, NaN, NaN, NaN, 0.04089605, "- N/A -   "
0.81, 35.0304, 0.00145779, NaN, NaN, NaN, 0.04211683, "- N/A -   "
0.86, 36.32782, 0.00153832, NaN, NaN, NaN, 0.0433376, "- N/A -   "
0.91, 37.6252, 0.001621623, NaN, NaN, NaN, 0.0445584, "- N/A -   "
0.96, 38.8047, 0.00170215, NaN, NaN, NaN, 0.0445584, "- N/A -   "
1.01, 40.22009, 0.00179656, NaN, NaN, NaN, 0.04089605, "- N/A -   "
1.06, 41.7534, 0.001890968, NaN, NaN, NaN, 0.0347922, "- N/A -   "
1.11, 43.1688, 0.001982601, NaN, NaN, NaN, 0.03112983, "- N/A -   "
1.16, 44.4662, 0.00206868, NaN, NaN, NaN, 0.0299091, "- N/A -   "
1.21, 45.76362, 0.002157536, NaN, NaN, NaN, 0.0274675, "- N/A -   "
1.26, 47.061, 0.00223529, NaN, NaN, NaN, 0.0299091, "- N/A -   "
1.31, 48.12257, 0.00231303, NaN, NaN, NaN, 0.0323506, "- N/A -   "
1.36, 49.6559, 0.00239634, NaN, NaN, NaN, 0.0323506, "- N/A -   "
1.41, 50.83536, 0.00247686, NaN, NaN, NaN, 0.0335714, "- N/A -   "
1.46, 51.89689, 0.00254906, NaN, NaN, NaN, 0.0384545, "- N/A -   "
1.51, 53.0764, 0.00262403, NaN, NaN, NaN, 0.0433376, "- N/A -   "
1.56, 54.4917, 0.00270178, NaN, NaN, NaN, 0.0445584, "- N/A -   "
1.61, 55.9071, 0.002785082, NaN, NaN, NaN, 0.0445584, "- N/A -   "
1.66, 57.20452, 0.00287116, NaN, NaN, NaN, 0.0433376, "- N/A -   "
1.71, 58.8558, 0.00296835, NaN, NaN, NaN, 0.0384545, "- N/A -   "
1.76, 60.5071, 0.00306276, NaN, NaN, NaN, 0.0335714, "- N/A -   "
1.81, 61.8045, 0.00314884, NaN, NaN, NaN, 0.03112983, "- N/A -   "
1.86, 63.2198, 0.003226586, NaN, NaN, NaN, 0.0335714, "- N/A -   "
1.91, 64.28137, 0.003304335, NaN, NaN, NaN, 0.0372337, "- N/A -   "
1.96, 65.69674, 0.00338764, NaN, NaN, NaN, 0.03601294, "- N/A -   "
2.01, 67.34801, 0.00347927, NaN, NaN, NaN, 0.0323506, "- N/A -   "
2.06, 68.6454, 0.00356257, NaN, NaN, NaN, 0.0335714, "- N/A -   "
2.11, 70.0608, 0.003637545, NaN, NaN, NaN, 0.03601294, "- N/A -   "
2.16, 71.12233, 0.00370974, NaN, NaN, NaN, 0.04089605, "- N/A -   "
2.21, 72.65564, 0.00379582, NaN, NaN, NaN, 0.0396753, "- N/A -   "
2.26, 74.189, 0.0038819, NaN, NaN, NaN, 0.0384545, "- N/A -   "
2.31, 75.6043, 0.003965202, NaN, NaN, NaN, 0.0384545, "- N/A -   "
2.36, 77.13765, 0.00405128, NaN, NaN, NaN, 0.0372337, "- N/A -   "
2.41, 78.55301, 0.00413458, NaN, NaN, NaN, 0.0372337, "- N/A -   "
2.46, 79.96838, 0.00422066, NaN, NaN, NaN, 0.0372337, "- N/A -   "
2.51, 81.38376, 0.00430119, NaN, NaN, NaN, 0.0372337, "- N/A -   "
2.56, 83.03502, 0.004392822, NaN, NaN, NaN, 0.0347922, "- N/A -   "
2.61, 84.45039, 0.0044789, NaN, NaN, NaN, 0.0323506, "- N/A -   "
2.66, 85.9837, 0.004567757, NaN, NaN, NaN, 0.03112983, "- N/A -   "
2.71, 87.51702, 0.00464828, NaN, NaN, NaN, 0.03112983, "- N/A -   "
2.76, 88.8144, 0.004728808, NaN, NaN, NaN, 0.0335714, "- N/A -   "
2.81, 90.34776, 0.004814888, NaN, NaN, NaN, 0.0323506, "- N/A -   "
2.86, 91.64519, 0.00488431, NaN, NaN, NaN, 0.0372337, "- N/A -   "
2.91, 93.1785, 0.004967609, NaN, NaN, NaN, 0.0372337, "- N/A -   "
2.96, 94.35797, 0.005039805, NaN, NaN, NaN, 0.04211683, "- N/A -   "
3.01, 95.6554, 0.005117554, NaN, NaN, NaN, 0.04577916, "- N/A -   "
3.06, 97.30666, 0.005203633, NaN, NaN, NaN, 0.0445584, "- N/A -   "
3.11, 98.9579, 0.005295266, NaN, NaN, NaN, 0.0396753, "- N/A -   "
3.16, 100.845, 0.00539245, NaN, NaN, NaN, 0.0335714, "- N/A -   "
3.21, 102.3784, 0.00547575, NaN, NaN, NaN, 0.0335714, "- N/A -   "
3.26, 103.676, 0.00555906, NaN, NaN, NaN, 0.0335714, "- N/A -   "
3.31, 105.445, 0.00563958, NaN, NaN, NaN, 0.0347922, "- N/A -   "
3.36, 106.978, 0.00572844, NaN, NaN, NaN, 0.0323506, "- N/A -   "
3.41, 108.63, 0.005814519, NaN, NaN, NaN, 0.0323506, "- N/A -   "
3.46, 110.045, 0.005897821, NaN, NaN, NaN, 0.03112983, "- N/A -   "
3.51, 111.342, 0.005972794, NaN, NaN, NaN, 0.03601294, "- N/A -   "
3.56, 112.522, 0.00603944, NaN, NaN, NaN, 0.04211683, "- N/A -   "
3.61, 113.937, 0.00611718, NaN, NaN, NaN, 0.0445584, "- N/A -   "
3.66, 115.706, 0.00619771, NaN, NaN, NaN, 0.04699994, "- N/A -   "
3.71, 117.476, 0.006294897, NaN, NaN, NaN, 0.04089605, "- N/A -   "
3.76, 119.127, 0.006383753, NaN, NaN, NaN, 0.0384545, "- N/A -   "
3.81, 120.778, 0.006472609, NaN, NaN, NaN, 0.03601294, "- N/A -   "
3.86, 122.312, 0.006558688, NaN, NaN, NaN, 0.0347922, "- N/A -   "
3.91, 123.963, 0.006650321, NaN, NaN, NaN, 0.0323506, "- N/A -   "
3.96, 125.732, 0.00673918, NaN, NaN, NaN, 0.0286883, "- N/A -   "
4.01, 127.147, 0.00682248, NaN, NaN, NaN, 0.0299091, "- N/A -   "
4.06, 128.6807, 0.00690301, NaN, NaN, NaN, 0.0299091, "- N/A -   "
4.11, 130.214, 0.006983531, NaN, NaN, NaN, 0.03112983, "- N/A -   "
4.16, 131.511, 0.00705573, NaN, NaN, NaN, 0.03601294, "- N/A -   "
4.21, 132.6909, 0.00712515, NaN, NaN, NaN, 0.04211683, "- N/A -   "
4.26, 134.106, 0.00720012, NaN, NaN, NaN, 0.04577916, "- N/A -   "
4.31, 135.993, 0.007288974, NaN, NaN, NaN, 0.0433376, "- N/A -   "
4.36, 137.527, 0.00737505, NaN, NaN, NaN, 0.0433376, "- N/A -   "
4.41, 139.06, 0.00745558, NaN, NaN, NaN, 0.0433376, "- N/A -   "
4.46, 140.829, 0.00754443, NaN, NaN, NaN, 0.04089605, "- N/A -   "
4.51, 142.716, 0.0076444, NaN, NaN, NaN, 0.0335714, "- N/A -   "
4.56, 144.486, 0.00773325, NaN, NaN, NaN, 0.03112983, "- N/A -   "
4.61, 145.901, 0.007811003, NaN, NaN, NaN, 0.0335714, "- N/A -   "
4.66, 147.434, 0.007897083, NaN, NaN, NaN, 0.0335714, "- N/A -   "
4.71, 149.204, 0.007974831, NaN, NaN, NaN, 0.0347922, "- N/A -   "
4.76, 150.619, 0.008055357, NaN, NaN, NaN, 0.0372337, "- N/A -   "
4.81, 152.27, 0.008133106, NaN, NaN, NaN, 0.0384545, "- N/A -   "
4.86, 154.0394, 0.008219186, NaN, NaN, NaN, 0.0384545, "- N/A -   "
4.91, 155.573, 0.008294158, NaN, NaN, NaN, 0.04089605, "- N/A -   "
4.96, 157.106, 0.008371907, NaN, NaN, NaN, 0.0445584, "- N/A -   "
5.01, 158.875, 0.008452433, NaN, NaN, NaN, 0.0445584, "- N/A -   "
5.06, 160.88, 0.008546842, NaN, NaN, NaN, 0.0396753, "- N/A -   "
5.11, 163.121, 0.008644029, NaN, NaN, NaN, 0.0335714, "- N/A -   "
5.16, 165.009, 0.008735661, NaN, NaN, NaN, 0.03112983, "- N/A -   "
5.21, 166.896, 0.008816187, NaN, NaN, NaN, 0.03112983, "- N/A -   "
5.26, 168.783, 0.008896713, NaN, NaN, NaN, 0.0323506, "- N/A -   "
5.31, 170.1982, 0.008974463, NaN, NaN, NaN, 0.03601294, "- N/A -   "
5.36, 172.203, 0.009054988, NaN, NaN, NaN, 0.03601294, "- N/A -   "
5.41, 174.208, 0.00914662, NaN, NaN, NaN, 0.0335714, "- N/A -   "
5.46, 176.096, 0.009227146, NaN, NaN, NaN, 0.0335714, "- N/A -   "
5.51, 177.865, 0.009310449, NaN, NaN, NaN, 0.0335714, "- N/A -   "
5.56, 179.3981, 0.009385422, NaN, NaN, NaN, 0.0372337, "- N/A -   "
5.61, 180.931, 0.009457617, NaN, NaN, NaN, 0.04211683, "- N/A -   "
5.66, 182.937, 0.009543696, NaN, NaN, NaN, 0.04211683, "- N/A -   "
5.71, 184.706, 0.009626999, NaN, NaN, NaN, 0.04089605, "- N/A -   "
5.76, 186.711, 0.009715854, NaN, NaN, NaN, 0.0384545, "- N/A -   "
5.81, 188.716, 0.00980193, NaN, NaN, NaN, 0.0372337, "- N/A -   "
5.86, 190.367, 0.00988246, NaN, NaN, NaN, 0.0384545, "- N/A -   "
5.91, 192.136, 0.00996854, NaN, NaN, NaN, 0.0384545, "- N/A -   "
5.96, 194.142, 0.0100574, NaN, NaN, NaN, 0.0347922, "- N/A -   "
6.01, 196.147, 0.0101463, NaN, NaN, NaN, 0.0323506, "- N/A -   "
6.06, 197.798, 0.0102268, NaN, NaN, NaN, 0.0335714, "- N/A -   "
6.11, 199.567, 0.0103073, NaN, NaN, NaN, 0.03601294, "- N/A -   "
6.16, 201.2184, 0.0103906, NaN, NaN, NaN, 0.0347922, "- N/A -   "
6.21, 203.106, 0.0104739, NaN, NaN, NaN, 0.0347922, "- N/A -   "
6.26, 204.7568, 0.0105517, NaN, NaN, NaN, 0.0372337, "- N/A -   "
6.31, 206.644, 0.010635, NaN, NaN, NaN, 0.0384545, "- N/A -   "
6.36, 208.4132, 0.0107127, NaN, NaN, NaN, 0.0396753, "- N/A -   "
6.41, 209.946, 0.0107905, NaN, NaN, NaN, 0.04211683, "- N/A -   "
6.46, 211.9516, 0.0108765, NaN, NaN, NaN, 0.04089605, "- N/A -   "
6.51, 213.957, 0.01096817, NaN, NaN, NaN, 0.0372337, "- N/A -   "
6.52, 214.4285, 0.0109876, NaN, NaN, NaN, 0.0372337, "- N/A -   "
6.53, 214.9, 0.011007, NaN, NaN, NaN, 0.0347922, "- N/A -   "
6.54, 215.372, 0.0110265, NaN, NaN, NaN, 0.0335714, "- N/A -   "
6.56, 216.08, 0.0110654, NaN, NaN, NaN, 0.03112983, "- N/A -   "
6.58, 217.023, 0.0110987, NaN, NaN, NaN, 0.03112983, "- N/A -   "
6.6, 217.613, 0.011132, NaN, NaN, NaN, 0.03112983, "- N/A -   "
6.62, 218.203, 0.0111598, NaN, NaN, NaN, 0.0335714, "- N/A -   "
6.64, 218.793, 0.0111903, NaN, NaN, NaN, 0.0347922, "- N/A -   "
6.66, 219.6182, 0.0112264, NaN, NaN, NaN, 0.0335714, "- N/A -   "
6.68, 220.208, 0.0112597, NaN, NaN, NaN, 0.0347922, "- N/A -   "
6.7, 220.916, 0.0112903, NaN, NaN, NaN, 0.0347922, "- N/A -   "
6.72, 221.741, 0.0113264, NaN, NaN, NaN, 0.0335714, "- N/A -   "
6.74, 222.449, 0.0113597, NaN, NaN, NaN, 0.0335714, "- N/A -   "
6.76, 223.3925, 0.0114013, NaN, NaN, NaN, 0.0299091, "- N/A -   "
6.78, 224.1002, 0.0114402, NaN, NaN, NaN, 0.0286883, "- N/A -   "
6.8, 224.926, 0.0114735, NaN, NaN, NaN, 0.0274675, "- N/A -   "
6.82, 225.516, 0.0115041, NaN, NaN, NaN, 0.0286883, "- N/A -   "
6.84, 226.223, 0.0115346, NaN, NaN, NaN, 0.0299091, "- N/A -   "
6.86, 226.931, 0.0115652, NaN, NaN, NaN, 0.03112983, "- N/A -   "
6.88, 227.521, 0.0115985, NaN, NaN, NaN, 0.03112983, "- N/A -   "
6.9, 228.228, 0.0116318, NaN, NaN, NaN, 0.0323506, "- N/A -   "
6.92, 228.936, 0.0116596, NaN, NaN, NaN, 0.0335714, "- N/A -   "
6.94, 229.408, 0.0116873, NaN, NaN, NaN, 0.03601294, "- N/A -   "
6.96, 229.88, 0.0117151, NaN, NaN, NaN, 0.0396753, "- N/A -   "
6.98, 230.469, 0.0117429, NaN, NaN, NaN, 0.04089605, "- N/A -   "
7, 231.0591, 0.0117707, NaN, NaN, NaN, 0.0433376, "- N/A -   "
7.02, 231.767, 0.0117984, NaN, NaN, NaN, 0.04577916, "- N/A -   "
7.04, 232.357, 0.011829, NaN, NaN, NaN, 0.04699994, "- N/A -   "
7.06, 232.946, 0.0118595, NaN, NaN, NaN, 0.0482207, "- N/A -   "
7.08, 233.772, 0.0118984, NaN, NaN, NaN, 0.04699994, "- N/A -   "
7.1, 234.598, 0.0119317, NaN, NaN, NaN, 0.04577916, "- N/A -   "
7.12, 235.423, 0.0119706, NaN, NaN, NaN, 0.0433376, "- N/A -   "
7.14, 236.485, 0.0120122, NaN, NaN, NaN, 0.0396753, "- N/A -   "
7.16, 237.192, 0.0120511, NaN, NaN, NaN, 0.0372337, "- N/A -   "
7.18, 237.9, 0.0120872, NaN, NaN, NaN, 0.03601294, "- N/A -   "
7.2, 238.726, 0.0121233, NaN, NaN, NaN, 0.0347922, "- N/A -   "
7.22, 239.433, 0.0121594, NaN, NaN, NaN, 0.0335714, "- N/A -   "
7.24, 240.141, 0.0121927, NaN, NaN, NaN, 0.0347922, "- N/A -   "
7.26, 240.731, 0.0122233, NaN, NaN, NaN, 0.0347922, "- N/A -   "
7.28, 241.438, 0.0122594, NaN, NaN, NaN, 0.0335714, "- N/A -   "
7.3, 242.028, 0.01229268, NaN, NaN, NaN, 0.0347922, "- N/A -   "
7.32, 242.736, 0.012326, NaN, NaN, NaN, 0.0335714, "- N/A -   "
7.34, 243.56, 0.0123649, NaN, NaN, NaN, 0.0323506, "- N/A -   "
7.36, 244.385, 0.012401, NaN, NaN, NaN, 0.03112983, "- N/A -   "
7.38, 245.092, 0.0124371, NaN, NaN, NaN, 0.0286883, "- N/A -   "
7.4, 245.799, 0.0124704, NaN, NaN, NaN, 0.0299091, "- N/A -   "
7.42, 246.506, 0.0125037, NaN, NaN, NaN, 0.0299091, "- N/A -   "
7.44, 247.213, 0.012537, NaN, NaN, NaN, 0.0299091, "- N/A -   "
7.46, 247.802, 0.01256758, NaN, NaN, NaN, 0.0299091, "- N/A -   "
7.48, 248.509, 0.0126009, NaN, NaN, NaN, 0.03112983, "- N/A -   "
7.5, 249.098, 0.0126314, NaN, NaN, NaN, 0.0323506, "- N/A -   "
7.52, 249.6874, 0.0126592, NaN, NaN, NaN, 0.0335714, "- N/A -   "
7.54, 250.277, 0.0126898, NaN, NaN, NaN, 0.0347922, "- N/A -   "
7.56, 250.866, 0.0127203, NaN, NaN, NaN, 0.0372337, "- N/A -   "
7.58, 251.337, 0.0127481, NaN, NaN, NaN, 0.0384545, "- N/A -   "
7.6, 251.926, 0.0127786, NaN, NaN, NaN, 0.0396753, "- N/A -   "
7.62, 252.515, 0.01280638, NaN, NaN, NaN, 0.04211683, "- N/A -   "
7.64, 253.222, 0.0128397, NaN, NaN, NaN, 0.0433376, "- N/A -   "
7.66, 253.929, 0.012873, NaN, NaN, NaN, 0.04211683, "- N/A -   "
7.68, 254.518, 0.0129063, NaN, NaN, NaN, 0.0433376, "- N/A -   "
7.7, 255.225, 0.0129369, NaN, NaN, NaN, 0.0433376, "- N/A -   "
7.72, 255.932, 0.0129702, NaN, NaN, NaN, 0.0433376, "- N/A -   "
7.74, 256.5213, 0.0130035, NaN, NaN, NaN, 0.0433376, "- N/A -   "
7.76, 257.346, 0.0130396, NaN, NaN, NaN, 0.0433376, "- N/A -   "
7.78, 258.053, 0.0130729, NaN, NaN, NaN, 0.04211683, "- N/A -   "
7.8, 258.76, 0.013109, NaN, NaN, NaN, 0.04089605, "- N/A -   "
7.82, 259.585, 0.0131451, NaN, NaN, NaN, 0.0396753, "- N/A -   "
7.84, 260.292, 0.01318124, NaN, NaN, NaN, 0.0384545, "- N/A -   "
7.86, 260.9987, 0.0132173, NaN, NaN, NaN, 0.0372337, "- N/A -   "
7.88, 261.706, 0.0132534, NaN, NaN, NaN, 0.03601294, "- N/A -   "
7.9, 262.53, 0.0132923, NaN, NaN, NaN, 0.0347922, "- N/A -   "
7.92, 263.473, 0.013334, NaN, NaN, NaN, 0.03112983, "- N/A -   "
7.94, 264.298, 0.0133728, NaN, NaN, NaN, 0.0286883, "- N/A -   "
7.96, 265.0048, 0.0134062, NaN, NaN, NaN, 0.0274675, "- N/A -   "
7.98, 265.712, 0.0134395, NaN, NaN, NaN, 0.0274675, "- N/A -   "
8, 266.301, 0.0134728, NaN, NaN, NaN, 0.0274675, "- N/A -   "
8.02, 266.89, 0.0135061, NaN, NaN, NaN, 0.0286883, "- N/A -   "
8.04, 267.597, 0.0135339, NaN, NaN, NaN, 0.0299091, "- N/A -   "
8.06, 268.1861, 0.0135644, NaN, NaN, NaN, 0.03112983, "- N/A -   "
8.08, 268.657, 0.013595, NaN, NaN, NaN, 0.0323506, "- N/A -   "
8.1, 269.364, 0.0136255, NaN, NaN, NaN, 0.0335714, "- N/A -   "
8.12, 270.189, 0.0136588, NaN, NaN, NaN, 0.0347922, "- N/A -   "
8.14, 270.66, 0.01368661, NaN, NaN, NaN, 0.03601294, "- N/A -   "
8.16, 271.367, 0.0137199, NaN, NaN, NaN, 0.0372337, "- N/A -   "
8.18, 272.074, 0.013756, NaN, NaN, NaN, 0.03601294, "- N/A -   "
8.2, 272.663, 0.0137921, NaN, NaN, NaN, 0.03601294, "- N/A -   "
8.22, 273.488, 0.0138254, NaN, NaN, NaN, 0.03601294, "- N/A -   "
[...]
14.25, 488.6387, 0.0238856, NaN, NaN, NaN, 0.0299091, "- N/A -   "
14.49, 496.7687, 0.0242522, NaN, NaN, NaN, 0.0445584, "- N/A -   "
14.73, 506.548, 0.024677, NaN, NaN, NaN, 0.0335714, "- N/A -   "
14.97, 515.6291, 0.0250741, NaN, NaN, NaN, 0.0347922, "- N/A -   "
15.21, 524.382, 0.0254573, NaN, NaN, NaN, 0.04211683, "- N/A -   "
15.45, 534.4357, 0.0258877, NaN, NaN, NaN, 0.0286883, "- N/A -   "
15.69, 543.425, 0.0262764, NaN, NaN, NaN, 0.0335714, "- N/A -   "
15.93, 552.4144, 0.0266624, NaN, NaN, NaN, 0.0396753, "- N/A -   "
16.17, 562.1134, 0.02707333, NaN, NaN, NaN, 0.0347922, "- N/A -   "
16.41, 571.4576, 0.0274704, NaN, NaN, NaN, 0.03601294, "- N/A -   "
16.65, 580.684, 0.0278592, NaN, NaN, NaN, 0.04211683, "- N/A -   "
16.89, 590.7374, 0.0282784, NaN, NaN, NaN, 0.0323506, "- N/A -   "
17.13, 600.4364, 0.0286811, NaN, NaN, NaN, 0.03112983, "- N/A -   "
17.37, 609.3075, 0.02905593, NaN, NaN, NaN, 0.0433376, "- N/A -   "
17.61, 619.8345, 0.0294863, NaN, NaN, NaN, 0.0299091, "- N/A -   "
17.85, 628.5873, 0.0298584, NaN, NaN, NaN, 0.04211683, "- N/A -   "
18.09, 638.5228, 0.0302638, NaN, NaN, NaN, 0.0396753, "- N/A -   "
18.33, 648.695, 0.0306803, NaN, NaN, NaN, 0.0323506, "- N/A -   "
18.57, 658.0392, 0.03105797, NaN, NaN, NaN, 0.04211683, "- N/A -   "
18.81, 668.566, 0.0314828, NaN, NaN, NaN, 0.0323506, "- N/A -   "
19.05, 678.3835, 0.03187989, NaN, NaN, NaN, 0.0323506, "- N/A -   "
19.29, 687.609, 0.0322575, NaN, NaN, NaN, 0.04211683, "- N/A -   "
19.53, 698.0181, 0.03267404, NaN, NaN, NaN, 0.0347922, "- N/A -   "
19.77, 708.072, 0.03307667, NaN, NaN, NaN, 0.0335714, "- N/A -   "
20.01, 717.416, 0.03345708, NaN, NaN, NaN, 0.04211683, "- N/A -   "
20.25, 727.9432, 0.0338764, NaN, NaN, NaN, 0.0335714, "- N/A -   "
20.49, 738.2336, 0.03429011, NaN, NaN, NaN, 0.0286883, "- N/A -   "
20.73, 747.223, 0.0346511, NaN, NaN, NaN, 0.0445584, "- N/A -   "
20.97, 757.8682, 0.03507593, NaN, NaN, NaN, 0.0335714, "- N/A -   "
21.21, 767.804, 0.03547023, NaN, NaN, NaN, 0.03601294, "- N/A -   "
21.45, 777.2663, 0.03585342, NaN, NaN, NaN, 0.0433376, "- N/A -   "
21.69, 788.266, 0.0362866, NaN, NaN, NaN, 0.0299091, "- N/A -   "
21.93, 797.9654, 0.0366726, NaN, NaN, NaN, 0.0372337, "- N/A -   "
22.17, 808.256, 0.0370696, NaN, NaN, NaN, 0.0384545, "- N/A -   "
22.41, 818.428, 0.0374667, NaN, NaN, NaN, 0.0384545, "- N/A -   "
22.65, 828.364, 0.0378582, NaN, NaN, NaN, 0.04211683, "- N/A -   "
22.89, 838.8906, 0.0382692, NaN, NaN, NaN, 0.0372337, "- N/A -   "
23.13, 849.181, 0.03868015, NaN, NaN, NaN, 0.0323506, "- N/A -   "
23.37, 858.88, 0.0390633, NaN, NaN, NaN, 0.0396753, "- N/A -   "
23.61, 869.5254, 0.0394715, NaN, NaN, NaN, 0.03601294, "- N/A -   "
23.85, 880.171, 0.03988526, NaN, NaN, NaN, 0.03112983, "- N/A -   "
24.09, 889.3965, 0.0402518, NaN, NaN, NaN, 0.0445584, "- N/A -   "
24.33, 900.5149, 0.04067664, NaN, NaN, NaN, 0.0335714, "- N/A -   "
24.57, 910.9236, 0.04108482, NaN, NaN, NaN, 0.0299091, "- N/A -   "
24.81, 920.3861, 0.04145135, NaN, NaN, NaN, 0.0445584, "- N/A -   "
25.05, 931.623, 0.0418901, NaN, NaN, NaN, 0.0286883, "- N/A -   "
25.29, 941.558, 0.0422705, NaN, NaN, NaN, 0.03601294, "- N/A -   "
25.53, 951.8488, 0.0426676, NaN, NaN, NaN, 0.0384545, "- N/A -   "
25.77, 962.2575, 0.0430674, NaN, NaN, NaN, 0.0372337, "- N/A -   "
26.01, 972.7845, 0.04347005, NaN, NaN, NaN, 0.0372337, "- N/A -   "
26.25, 983.43, 0.0438755, NaN, NaN, NaN, 0.0347922, "- N/A -   "
26.49, 993.7202, 0.0442698, NaN, NaN, NaN, 0.0372337, "- N/A -   "
26.73, 1004.13, 0.0446696, NaN, NaN, NaN, 0.0372337, "- N/A -   "
26.97, 1014.55, 0.0450639, NaN, NaN, NaN, 0.0396753, "- N/A -   "
27.21, 1025.52, 0.04548042, NaN, NaN, NaN, 0.0335714, "- N/A -   "
27.45, 1035.54, 0.04586083, NaN, NaN, NaN, 0.04211683, "- N/A -   "
27.69, 1046.51, 0.04627179, NaN, NaN, NaN, 0.03601294, "- N/A -   "
27.93, 1057.24, 0.0466828, NaN, NaN, NaN, 0.0323506, "- N/A -   "
28.17, 1066.78, 0.04705206, NaN, NaN, NaN, 0.0445584, "- N/A -   "
28.41, 1078.59, 0.0474908, NaN, NaN, NaN, 0.0274675, "- N/A -   "
28.65, 1088.61, 0.0478768, NaN, NaN, NaN, 0.0335714, "- N/A -   "
28.89, 1098.38, 0.04824884, NaN, NaN, NaN, 0.04699994, "- N/A -   "
29.13, 1109.83, 0.0486709, NaN, NaN, NaN, 0.03601294, "- N/A -   "
29.37, 1120.446, 0.0490735, NaN, NaN, NaN, 0.0347922, "- N/A -   "
29.61, 1130.58, 0.0494567, NaN, NaN, NaN, 0.04211683, "- N/A -   "
29.85, 1141.91, 0.04987879, NaN, NaN, NaN, 0.0323506, "- N/A -   "
30.09, 1152.64, 0.0502842, NaN, NaN, NaN, 0.03112983, "- N/A -   "
30.33, 1162.3, 0.05064795, NaN, NaN, NaN, 0.04577916, "- N/A -   "
30.57, 1173.75, 0.05107835, NaN, NaN, NaN, 0.0335714, "- N/A -   "
30.81, 1184.25, 0.0514726, NaN, NaN, NaN, 0.03601294, "- N/A -   "
31.05, 1194.98, 0.05187528, NaN, NaN, NaN, 0.0347922, "- N/A -   "
31.29, 1205.95, 0.0522807, NaN, NaN, NaN, 0.0323506, "- N/A -   "
31.53, 1215.85, 0.0526583, NaN, NaN, NaN, 0.04211683, "- N/A -   "
31.77, 1226.7, 0.0530637, NaN, NaN, NaN, 0.0396753, "- N/A -   "
32.01, 1238.03, 0.053483, NaN, NaN, NaN, 0.0323506, "- N/A -   "
32.25, 1248.28, 0.0538579, NaN, NaN, NaN, 0.04211683, "- N/A -   "
32.49, 1259.85, 0.0542883, NaN, NaN, NaN, 0.0299091, "- N/A -   "
32.73, 1270.465, 0.05468535, NaN, NaN, NaN, 0.03112983, "- N/A -   "
32.97, 1280.48, 0.05506021, NaN, NaN, NaN, 0.04089605, "- N/A -   "
33.21, 1291.45, 0.0554684, NaN, NaN, NaN, 0.0384545, "- N/A -   "
33.45, 1302.31, 0.0558738, NaN, NaN, NaN, 0.0347922, "- N/A -   "
33.69, 1312.56, 0.05625699, NaN, NaN, NaN, 0.04211683, "- N/A -   "
33.93, 1324.25, 0.05668461, NaN, NaN, NaN, 0.0299091, "- N/A -   "
34.17, 1334.74, 0.0570761, NaN, NaN, NaN, 0.0335714, "- N/A -   "
34.41, 1344.759, 0.05745377, NaN, NaN, NaN, 0.0433376, "- N/A -   "
34.65, 1356.33, 0.0578814, NaN, NaN, NaN, 0.03112983, "- N/A -   "
34.89, 1366.34, 0.0582563, NaN, NaN, NaN, 0.04211683, "- N/A -   "
35.13, 1377.08, 0.05865888, NaN, NaN, NaN, 0.04089605, "- N/A -   "
35.37, 1388.763, 0.0590865, NaN, NaN, NaN, 0.0299091, "- N/A -   "
35.61, 1398.78, 0.0594614, NaN, NaN, NaN, 0.04089605, "- N/A -   "
35.85, 1409.87, 0.0598779, NaN, NaN, NaN, 0.0347922, "- N/A -   "
36.09, 1420.6, 0.06027495, NaN, NaN, NaN, 0.03601294, "- N/A -   "
36.33, 1430.86, 0.0606581, NaN, NaN, NaN, 0.0433376, "- N/A -   "
36.57, 1442.19, 0.0610747, NaN, NaN, NaN, 0.0347922, "- N/A -   "
36.81, 1452.8, 0.06147728, NaN, NaN, NaN, 0.0335714, "- N/A -   "
37.05, 1463.057, 0.0618577, NaN, NaN, NaN, 0.04211683, "- N/A -   "
37.29, 1474.39, 0.062277, NaN, NaN, NaN, 0.0347922, "- N/A -   "
37.53, 1485.48, 0.06268795, NaN, NaN, NaN, 0.0286883, "- N/A -   "
37.77, 1495.02, 0.0630517, NaN, NaN, NaN, 0.0445584, "- N/A -   "
38.01, 1506.7, 0.0634821, NaN, NaN, NaN, 0.03112983, "- N/A -   "
38.25, 1517.078, 0.06387085, NaN, NaN, NaN, 0.03601294, "- N/A -   "
38.49, 1527.21, 0.06425404, NaN, NaN, NaN, 0.0433376, "- N/A -   "
38.73, 1539.14, 0.06468999, NaN, NaN, NaN, 0.0274675, "- N/A -   "
38.97, 1549.4, 0.06507318, NaN, NaN, NaN, 0.0347922, "- N/A -   "
39.21, 1560.128, 0.06547581, NaN, NaN, NaN, 0.0335714, "- N/A -   "
39.45, 1570.503, 0.06586733, NaN, NaN, NaN, 0.0372337, "- N/A -   "
39.69, 1581.35, 0.0662644, NaN, NaN, NaN, 0.0396753, "- N/A -   "
39.93, 1592.21, 0.06666703, NaN, NaN, NaN, 0.0384545, "- N/A -   "
40.17, 1603.178, 0.067078, NaN, NaN, NaN, 0.0335714, "- N/A -   "
40.41, 1613.31, 0.0674612, NaN, NaN, NaN, 0.04089605, "- N/A -   "
40.65, 1624.29, 0.06786659, NaN, NaN, NaN, 0.0384545, "- N/A -   "
40.89, 1635.61, 0.06829143, NaN, NaN, NaN, 0.0274675, "- N/A -   "
41.13, 1644.92, 0.0686496, NaN, NaN, NaN, 0.04699994, "- N/A -   "
41.37, 1656.36, 0.06907725, NaN, NaN, NaN, 0.0347922, "- N/A -   "
41.61, 1667.34, 0.06948821, NaN, NaN, NaN, 0.0299091, "- N/A -   "
41.85, 1676.64, 0.069852, NaN, NaN, NaN, 0.0445584, "- N/A -   "
42.09, 1688.32, 0.0702907, NaN, NaN, NaN, 0.0286883, "- N/A -   "
42.33, 1698.22, 0.07066555, NaN, NaN, NaN, 0.0384545, "- N/A -   "
42.57, 1708.12, 0.07104875, NaN, NaN, NaN, 0.04577916, "- N/A -   "
42.81, 1719.33, 0.07147081, NaN, NaN, NaN, 0.0372337, "- N/A -   "
43.05, 1729.94, 0.07187344, NaN, NaN, NaN, 0.0347922, "- N/A -   "
43.29, 1740.2, 0.07226496, NaN, NaN, NaN, 0.0396753, "- N/A -   "
43.53, 1751.17, 0.07268148, NaN, NaN, NaN, 0.03112983, "- N/A -   "
43.77, 1761.43, 0.07307578, NaN, NaN, NaN, 0.0335714, "- N/A -   "
44.01, 1771.08, 0.07345342, NaN, NaN, NaN, 0.0445584, "- N/A -   "
44.25, 1782.18, 0.07387271, NaN, NaN, NaN, 0.0347922, "- N/A -   "
44.49, 1792.31, 0.07426701, NaN, NaN, NaN, 0.0384545, "- N/A -   "
44.73, 1802.925, 0.07467241, NaN, NaN, NaN, 0.03601294, "- N/A -   "
44.963, 1813.42, 0.07507782, NaN, NaN, NaN, 0.0286883, "- N/A -   "