File: 2_Tensile_Data/Hamel_ForceTest_Bolt10_Test10.csv
Time, Load (lb), Position (in), AxialStrain (in), TransverseStrain (in), Auxiliary (), Control Out (V), Stress (psi)
0.0, 9.907588, 0.0, NaN, NaN, NaN, -0.006714277, "- N/A -   "
0.01, 9.907588, 2.776752E-6, NaN, NaN, NaN, -6.103888E-4, "- N/A -   "
0.02, 9.78964, 2.776752E-6, NaN, NaN, NaN, 0.006714277, "- N/A -   "
0.03, 9.907588, 5.553504E-6, NaN, NaN, NaN, 0.0238052, "- N/A -   "
0.04, 9.907588, 8.330256E-6, NaN, NaN, NaN, 0.04211683, "- N/A -   "
0.05, 10.1435, 1.94373e-05, NaN, NaN, NaN, 0.0579869, "- N/A -   "
0.06, 10.26143, 3.60978e-05, NaN, NaN, NaN, 0.0701947, "- N/A -   "
0.07, 10.73322, 5.5535e-05, NaN, NaN, NaN, 0.08118171, "- N/A -   "
0.08, 11.0871, 8.05258E-5, NaN, NaN, NaN, 0.0897272, "- N/A -   "
0.09, 11.323, 0.000108293, NaN, NaN, NaN, 0.09705182, "- N/A -   "
0.1, 11.7947, 1.388376E-4, NaN, NaN, NaN, 0.100714, "- N/A -   "
0.11, 12.14859, 0.000169382, NaN, NaN, NaN, 0.09338949, "- N/A -   "
0.12, 12.6204, 0.000202703, NaN, NaN, NaN, 0.0872856, "- N/A -   "
0.13, 12.8563, 2.304704E-4, NaN, NaN, NaN, 0.08240249, "- N/A -   "
0.14, 13.2101, 0.000255461, NaN, NaN, NaN, 0.07874016, "- N/A -   "
0.15, 13.446, 2.776752E-4, NaN, NaN, NaN, 0.0750778, "- N/A -   "
0.16, 13.7999, 2.998892E-4, NaN, NaN, NaN, 0.07385705, "- N/A -   "
0.17, 13.9178, 3.165497E-4, NaN, NaN, NaN, 0.07263627, "- N/A -   "
0.18, 14.1537, 0.000335987, NaN, NaN, NaN, 0.07141549, "- N/A -   "
0.19, 14.2716, 0.000355424, NaN, NaN, NaN, 0.0701947, "- N/A -   "
0.2, 14.5075, 3.748615E-4, NaN, NaN, NaN, 0.0701947, "- N/A -   "
0.21, 14.8614, 0.000391522, NaN, NaN, NaN, 0.0689739, "- N/A -   "
0.22, 14.9793, 4.13736E-4, NaN, NaN, NaN, 0.06653238, "- N/A -   "
0.23, 15.4511, 4.331733E-4, NaN, NaN, NaN, 0.0653116, "- N/A -   "
0.24, 15.5691, 0.000452611, NaN, NaN, NaN, 0.0640908, "- N/A -   "
0.25, 15.687, 4.720478E-4, NaN, NaN, NaN, 0.06287005, "- N/A -   "
0.26, 15.9229, 0.000491485, NaN, NaN, NaN, 0.06164927, "- N/A -   "
0.27, 16.27675, 0.000510922, NaN, NaN, NaN, 0.0604285, "- N/A -   "
0.28, 16.3947, 0.000533136, NaN, NaN, NaN, 0.0579869, "- N/A -   "
0.29, 16.74854, 5.553504E-4, NaN, NaN, NaN, 0.0555454, "- N/A -   "
0.3, 16.86649, 0.000577564, NaN, NaN, NaN, 0.0543246, "- N/A -   "
0.31, 17.2203, 0.000597002, NaN, NaN, NaN, 0.05188305, "- N/A -   "
0.32, 17.3383, 6.164389E-4, NaN, NaN, NaN, 0.05066227, "- N/A -   "
0.33, 17.5742, 0.000638653, NaN, NaN, NaN, 0.0494415, "- N/A -   "
0.34, 17.8101, 0.00065809, NaN, NaN, NaN, 0.0482207, "- N/A -   "
0.35, 18.046, 0.000677527, NaN, NaN, NaN, 0.04699994, "- N/A -   "
0.36, 18.2819, 6.969647E-4, NaN, NaN, NaN, 0.04577916, "- N/A -   "
0.37, 18.3998, 7.136252E-4, NaN, NaN, NaN, 0.0445584, "- N/A -   "
0.38, 18.6357, 0.000735839, NaN, NaN, NaN, 0.04211683, "- N/A -   "
0.39, 18.7536, 7.552765E-4, NaN, NaN, NaN, 0.04089605, "- N/A -   "
0.4, 18.9895, 7.71937E-4, NaN, NaN, NaN, 0.04089605, "- N/A -   "
0.41, 19.2254, 0.000791374, NaN, NaN, NaN, 0.0396753, "- N/A -   "
0.46, 20.05107, 0.00088023, NaN, NaN, NaN, 0.0384545, "- N/A -   "
0.51, 21.2305, 9.746399E-4, NaN, NaN, NaN, 0.0323506, "- N/A -   "
0.56, 22.1741, 0.00106627, NaN, NaN, NaN, 0.0286883, "- N/A -   "
0.61, 22.88181, 0.00114402, NaN, NaN, NaN, 0.03112983, "- N/A -   "
0.66, 23.7074, 0.001218994, NaN, NaN, NaN, 0.0347922, "- N/A -   "
0.71, 24.65102, 0.00129397, NaN, NaN, NaN, 0.0384545, "- N/A -   "
0.76, 25.4767, 0.00137172, NaN, NaN, NaN, 0.04089605, "- N/A -   "
0.81, 26.18434, 0.00144946, NaN, NaN, NaN, 0.0445584, "- N/A -   "
0.86, 27.1279, 0.00152999, NaN, NaN, NaN, 0.0445584, "- N/A -   "
0.91, 28.0715, 0.00161607, NaN, NaN, NaN, 0.0433376, "- N/A -   "
0.96, 29.251, 0.00169937, NaN, NaN, NaN, 0.0433376, "- N/A -   "
1.01, 30.4304, 0.00179378, NaN, NaN, NaN, 0.0396753, "- N/A -   "
1.06, 31.6099, 0.00188819, NaN, NaN, NaN, 0.0335714, "- N/A -   "
1.11, 32.9073, 0.00198538, NaN, NaN, NaN, 0.0274675, "- N/A -   "
1.16, 33.8509, 0.00206313, NaN, NaN, NaN, 0.0299091, "- N/A -   "
1.21, 34.9125, 0.00214365, NaN, NaN, NaN, 0.03112983, "- N/A -   "
1.26, 36.0919, 0.002226955, NaN, NaN, NaN, 0.03112983, "- N/A -   "
1.31, 37.0355, 0.002304704, NaN, NaN, NaN, 0.0347922, "- N/A -   "
1.36, 38.215, 0.00238523, NaN, NaN, NaN, 0.0347922, "- N/A -   "
1.41, 39.3945, 0.00247131, NaN, NaN, NaN, 0.0335714, "- N/A -   "
1.46, 40.57393, 0.002549058, NaN, NaN, NaN, 0.03601294, "- N/A -   "
1.51, 41.6355, 0.00261848, NaN, NaN, NaN, 0.04211683, "- N/A -   "
1.56, 42.697, 0.00269345, NaN, NaN, NaN, 0.04577916, "- N/A -   "
1.61, 43.9944, 0.00277953, NaN, NaN, NaN, 0.04577916, "- N/A -   "
1.66, 45.40978, 0.00287116, NaN, NaN, NaN, 0.04211683, "- N/A -   "
1.71, 46.8251, 0.00296279, NaN, NaN, NaN, 0.0372337, "- N/A -   "
1.76, 48.2405, 0.00305165, NaN, NaN, NaN, 0.0347922, "- N/A -   "
1.81, 49.5379, 0.00314051, NaN, NaN, NaN, 0.0323506, "- N/A -   "
1.86, 50.83536, 0.00322103, NaN, NaN, NaN, 0.0335714, "- N/A -   "
1.91, 52.1328, 0.00330433, NaN, NaN, NaN, 0.0335714, "- N/A -   "
1.96, 53.4302, 0.00338486, NaN, NaN, NaN, 0.0347922, "- N/A -   "
2.01, 54.9635, 0.00347372, NaN, NaN, NaN, 0.0323506, "- N/A -   "
2.06, 56.143, 0.00355424, NaN, NaN, NaN, 0.0335714, "- N/A -   "
2.11, 57.44042, 0.00362921, NaN, NaN, NaN, 0.0372337, "- N/A -   "
2.16, 58.7378, 0.00370696, NaN, NaN, NaN, 0.04089605, "- N/A -   "
2.21, 60.0353, 0.00378471, NaN, NaN, NaN, 0.04211683, "- N/A -   "
2.26, 61.6865, 0.00387635, NaN, NaN, NaN, 0.0396753, "- N/A -   "
2.31, 62.98395, 0.00395687, NaN, NaN, NaN, 0.0396753, "- N/A -   "
2.36, 64.6352, 0.004048504, NaN, NaN, NaN, 0.0372337, "- N/A -   "
2.41, 66.16853, 0.00413736, NaN, NaN, NaN, 0.0335714, "- N/A -   "
2.46, 67.5839, 0.00422066, NaN, NaN, NaN, 0.0347922, "- N/A -   "
2.51, 68.9993, 0.004298412, NaN, NaN, NaN, 0.03601294, "- N/A -   "
2.56, 70.5326, 0.004387268, NaN, NaN, NaN, 0.0347922, "- N/A -   "
2.61, 71.94796, 0.00447057, NaN, NaN, NaN, 0.0335714, "- N/A -   "
2.66, 73.48127, 0.00455665, NaN, NaN, NaN, 0.0335714, "- N/A -   "
2.71, 75.0146, 0.00463718, NaN, NaN, NaN, 0.0335714, "- N/A -   "
2.76, 76.5479, 0.004726032, NaN, NaN, NaN, 0.03112983, "- N/A -   "
2.81, 78.19917, 0.00481489, NaN, NaN, NaN, 0.0286883, "- N/A -   "
2.86, 79.2607, 0.00488153, NaN, NaN, NaN, 0.03601294, "- N/A -   "
2.91, 80.67606, 0.00495373, NaN, NaN, NaN, 0.04089605, "- N/A -   "
2.96, 82.09144, 0.00503147, NaN, NaN, NaN, 0.0433376, "- N/A -   "
3.01, 83.74271, 0.005112, NaN, NaN, NaN, 0.04577916, "- N/A -   "
3.06, 85.276, 0.0051953, NaN, NaN, NaN, 0.0445584, "- N/A -   "
3.11, 87.04523, 0.00528694, NaN, NaN, NaN, 0.04211683, "- N/A -   "
3.16, 89.05035, 0.00538135, NaN, NaN, NaN, 0.03601294, "- N/A -   "
3.21, 90.58366, 0.00547298, NaN, NaN, NaN, 0.0335714, "- N/A -   "
3.26, 92.35287, 0.00555628, NaN, NaN, NaN, 0.0323506, "- N/A -   "
3.31, 93.8862, 0.005639583, NaN, NaN, NaN, 0.0335714, "- N/A -   "
3.36, 95.5374, 0.00572566, NaN, NaN, NaN, 0.03112983, "- N/A -   "
3.41, 97.54256, 0.005817295, NaN, NaN, NaN, 0.0274675, "- N/A -   "
3.46, 98.9579, 0.00588949, NaN, NaN, NaN, 0.0323506, "- N/A -   "
3.51, 100.3733, 0.005964463, NaN, NaN, NaN, 0.03601294, "- N/A -   "
3.56, 101.789, 0.006036659, NaN, NaN, NaN, 0.04089605, "- N/A -   "
3.61, 103.204, 0.006108854, NaN, NaN, NaN, 0.04577916, "- N/A -   "
3.66, 105.091, 0.006192157, NaN, NaN, NaN, 0.04699994, "- N/A -   "
3.71, 107.0963, 0.006286566, NaN, NaN, NaN, 0.0433376, "- N/A -   "
3.76, 108.983, 0.006378199, NaN, NaN, NaN, 0.0384545, "- N/A -   "
3.81, 110.989, 0.006469832, NaN, NaN, NaN, 0.03601294, "- N/A -   "
3.86, 112.64, 0.006555911, NaN, NaN, NaN, 0.0347922, "- N/A -   "
3.91, 114.527, 0.00664199, NaN, NaN, NaN, 0.0335714, "- N/A -   "
3.96, 116.5321, 0.00673085, NaN, NaN, NaN, 0.0299091, "- N/A -   "
4.01, 118.301, 0.006814149, NaN, NaN, NaN, 0.0299091, "- N/A -   "
4.06, 120.188, 0.00690301, NaN, NaN, NaN, 0.0286883, "- N/A -   "
4.11, 121.958, 0.0069752, NaN, NaN, NaN, 0.0323506, "- N/A -   "
4.16, 123.491, 0.007047396, NaN, NaN, NaN, 0.0372337, "- N/A -   "
4.21, 125.024, 0.007119592, NaN, NaN, NaN, 0.04211683, "- N/A -   "
4.26, 126.794, 0.00719734, NaN, NaN, NaN, 0.04577916, "- N/A -   "
4.31, 128.563, 0.007277867, NaN, NaN, NaN, 0.04577916, "- N/A -   "
4.36, 130.4499, 0.00736395, NaN, NaN, NaN, 0.0445584, "- N/A -   "
4.41, 132.455, 0.007452802, NaN, NaN, NaN, 0.0433376, "- N/A -   "
4.46, 134.46, 0.007541658, NaN, NaN, NaN, 0.0396753, "- N/A -   "
4.51, 136.701, 0.007636068, NaN, NaN, NaN, 0.0347922, "- N/A -   "
4.56, 138.942, 0.00773325, NaN, NaN, NaN, 0.0299091, "- N/A -   "
4.61, 140.593, 0.00781378, NaN, NaN, NaN, 0.0299091, "- N/A -   "
4.66, 142.481, 0.00789431, NaN, NaN, NaN, 0.0323506, "- N/A -   "
4.71, 144.25, 0.007972055, NaN, NaN, NaN, 0.0347922, "- N/A -   "
4.76, 146.019, 0.008049804, NaN, NaN, NaN, 0.0372337, "- N/A -   "
4.81, 147.906, 0.00813033, NaN, NaN, NaN, 0.0372337, "- N/A -   "
4.86, 149.793, 0.008213632, NaN, NaN, NaN, 0.0372337, "- N/A -   "
4.91, 151.5625, 0.008288604, NaN, NaN, NaN, 0.04089605, "- N/A -   "
4.96, 153.332, 0.008366354, NaN, NaN, NaN, 0.0433376, "- N/A -   "
5.01, 155.101, 0.00844688, NaN, NaN, NaN, 0.0445584, "- N/A -   "
5.06, 157.224, 0.00853851, NaN, NaN, NaN, 0.04211683, "- N/A -   "
5.11, 159.465, 0.008635699, NaN, NaN, NaN, 0.0347922, "- N/A -   "
5.16, 161.588, 0.008727332, NaN, NaN, NaN, 0.03112983, "- N/A -   "
5.21, 163.711, 0.008816187, NaN, NaN, NaN, 0.0299091, "- N/A -   "
5.26, 165.362, 0.00889116, NaN, NaN, NaN, 0.0335714, "- N/A -   "
5.31, 167.132, 0.008966132, NaN, NaN, NaN, 0.03601294, "- N/A -   "
5.36, 168.901, 0.009046658, NaN, NaN, NaN, 0.0372337, "- N/A -   "
5.41, 171.142, 0.009141067, NaN, NaN, NaN, 0.0335714, "- N/A -   "
5.46, 173.1469, 0.009227146, NaN, NaN, NaN, 0.03112983, "- N/A -   "
5.51, 174.9161, 0.009302119, NaN, NaN, NaN, 0.0347922, "- N/A -   "
5.56, 176.449, 0.009377091, NaN, NaN, NaN, 0.0384545, "- N/A -   "
5.61, 178.219, 0.00945484, NaN, NaN, NaN, 0.04211683, "- N/A -   "
5.66, 180.106, 0.009538143, NaN, NaN, NaN, 0.04089605, "- N/A -   "
5.71, 181.993, 0.009618668, NaN, NaN, NaN, 0.04211683, "- N/A -   "
5.76, 184.116, 0.009707525, NaN, NaN, NaN, 0.0396753, "- N/A -   "
5.81, 186.239, 0.009799156, NaN, NaN, NaN, 0.03601294, "- N/A -   "
5.86, 188.1262, 0.00988246, NaN, NaN, NaN, 0.03601294, "- N/A -   "
5.91, 189.895, 0.009962986, NaN, NaN, NaN, 0.0384545, "- N/A -   "
5.96, 191.7826, 0.0100463, NaN, NaN, NaN, 0.0372337, "- N/A -   "
6.01, 193.906, 0.0101351, NaN, NaN, NaN, 0.0347922, "- N/A -   "
6.06, 195.675, 0.0102157, NaN, NaN, NaN, 0.03601294, "- N/A -   "
6.11, 197.562, 0.01030175, NaN, NaN, NaN, 0.0347922, "- N/A -   "
6.16, 199.449, 0.0103823, NaN, NaN, NaN, 0.03601294, "- N/A -   "
6.21, 201.454, 0.0104739, NaN, NaN, NaN, 0.0323506, "- N/A -   "
6.26, 203.2235, 0.01054888, NaN, NaN, NaN, 0.03601294, "- N/A -   "
6.31, 204.875, 0.0106266, NaN, NaN, NaN, 0.0384545, "- N/A -   "
6.36, 206.644, 0.0107044, NaN, NaN, NaN, 0.04089605, "- N/A -   "
6.41, 208.4132, 0.0107849, NaN, NaN, NaN, 0.0433376, "- N/A -   "
6.46, 210.418, 0.010871, NaN, NaN, NaN, 0.04211683, "- N/A -   "
6.51, 212.4234, 0.0109626, NaN, NaN, NaN, 0.0384545, "- N/A -   "
6.56, 214.6644, 0.011057, NaN, NaN, NaN, 0.0323506, "- N/A -   "
6.61, 216.434, 0.0111431, NaN, NaN, NaN, 0.03112983, "- N/A -   "
6.66, 218.203, 0.0112236, NaN, NaN, NaN, 0.0335714, "- N/A -   "
6.69, 219.1464, 0.0112681, NaN, NaN, NaN, 0.0347922, "- N/A -   "
6.7, 219.5, 0.0112847, NaN, NaN, NaN, 0.0347922, "- N/A -   "
6.71, 219.8541, 0.01130138, NaN, NaN, NaN, 0.0347922, "- N/A -   "
6.72, 220.208, 0.01131804, NaN, NaN, NaN, 0.03601294, "- N/A -   "
6.73, 220.562, 0.0113319, NaN, NaN, NaN, 0.03601294, "- N/A -   "
6.74, 220.798, 0.0113514, NaN, NaN, NaN, 0.0347922, "- N/A -   "
6.75, 221.269, 0.011368, NaN, NaN, NaN, 0.0347922, "- N/A -   "
6.76, 221.623, 0.0113902, NaN, NaN, NaN, 0.0335714, "- N/A -   "
6.77, 222.095, 0.0114069, NaN, NaN, NaN, 0.0323506, "- N/A -   "
6.78, 222.685, 0.0114263, NaN, NaN, NaN, 0.03112983, "- N/A -   "
6.79, 222.921, 0.0114458, NaN, NaN, NaN, 0.03112983, "- N/A -   "
6.8, 223.3925, 0.0114652, NaN, NaN, NaN, 0.0299091, "- N/A -   "
6.81, 223.746, 0.0114819, NaN, NaN, NaN, 0.0286883, "- N/A -   "
6.82, 224.1002, 0.0114985, NaN, NaN, NaN, 0.0286883, "- N/A -   "
6.83, 224.454, 0.011518, NaN, NaN, NaN, 0.0286883, "- N/A -   "
6.84, 224.808, 0.0115318, NaN, NaN, NaN, 0.0286883, "- N/A -   "
6.85, 225.162, 0.01154851, NaN, NaN, NaN, 0.0299091, "- N/A -   "
6.86, 225.516, 0.0115652, NaN, NaN, NaN, 0.0299091, "- N/A -   "
6.87, 225.751, 0.0115791, NaN, NaN, NaN, 0.0299091, "- N/A -   "
6.88, 226.1053, 0.0115929, NaN, NaN, NaN, 0.03112983, "- N/A -   "
6.89, 226.459, 0.0116096, NaN, NaN, NaN, 0.0323506, "- N/A -   "
6.9, 226.695, 0.0116235, NaN, NaN, NaN, 0.0323506, "- N/A -   "
6.91, 227.049, 0.0116401, NaN, NaN, NaN, 0.0323506, "- N/A -   "
6.92, 227.285, 0.011654, NaN, NaN, NaN, 0.0335714, "- N/A -   "
6.93, 227.639, 0.0116679, NaN, NaN, NaN, 0.03601294, "- N/A -   "
6.94, 227.992, 0.0116818, NaN, NaN, NaN, 0.0372337, "- N/A -   "
6.95, 228.11, 0.0116957, NaN, NaN, NaN, 0.0372337, "- N/A -   "
6.96, 228.346, 0.0117096, NaN, NaN, NaN, 0.0396753, "- N/A -   "
6.97, 228.818, 0.0117234, NaN, NaN, NaN, 0.0396753, "- N/A -   "
6.98, 229.054, 0.0117401, NaN, NaN, NaN, 0.0396753, "- N/A -   "
6.99, 229.408, 0.01175399, NaN, NaN, NaN, 0.04089605, "- N/A -   "
7, 229.644, 0.0117679, NaN, NaN, NaN, 0.04211683, "- N/A -   "
7.01, 229.998, 0.0117845, NaN, NaN, NaN, 0.0433376, "- N/A -   "
7.02, 230.351, 0.0117984, NaN, NaN, NaN, 0.0433376, "- N/A -   "
7.03, 230.587, 0.0118151, NaN, NaN, NaN, 0.0445584, "- N/A -   "
7.04, 230.941, 0.011829, NaN, NaN, NaN, 0.0445584, "- N/A -   "
7.05, 231.413, 0.0118456, NaN, NaN, NaN, 0.0445584, "- N/A -   "
7.06, 231.531, 0.0118623, NaN, NaN, NaN, 0.04577916, "- N/A -   "
7.07, 232.003, 0.0118762, NaN, NaN, NaN, 0.04577916, "- N/A -   "
7.08, 232.239, 0.0118901, NaN, NaN, NaN, 0.04699994, "- N/A -   "
7.09, 232.592, 0.0119067, NaN, NaN, NaN, 0.04699994, "- N/A -   "
7.1, 232.946, 0.0119261, NaN, NaN, NaN, 0.04699994, "- N/A -   "
7.11, 233.418, 0.0119428, NaN, NaN, NaN, 0.04577916, "- N/A -   "
7.12, 233.772, 0.011965, NaN, NaN, NaN, 0.0445584, "- N/A -   "
7.13, 234.126, 0.01198446, NaN, NaN, NaN, 0.04211683, "- N/A -   "
7.14, 234.715, 0.0120039, NaN, NaN, NaN, 0.04089605, "- N/A -   "
7.15, 235.0693, 0.0120233, NaN, NaN, NaN, 0.0396753, "- N/A -   "
7.16, 235.3052, 0.0120428, NaN, NaN, NaN, 0.0384545, "- N/A -   "
7.17, 236.0129, 0.012065, NaN, NaN, NaN, 0.0372337, "- N/A -   "
7.18, 236.249, 0.0120844, NaN, NaN, NaN, 0.03601294, "- N/A -   "
7.19, 236.721, 0.0121011, NaN, NaN, NaN, 0.0347922, "- N/A -   "
7.2, 236.956, 0.0121205, NaN, NaN, NaN, 0.0347922, "- N/A -   "
7.21, 237.428, 0.0121372, NaN, NaN, NaN, 0.0335714, "- N/A -   "
7.22, 237.664, 0.0121538, NaN, NaN, NaN, 0.0335714, "- N/A -   "
7.23, 238.136, 0.0121705, NaN, NaN, NaN, 0.0335714, "- N/A -   "
7.24, 238.372, 0.0121872, NaN, NaN, NaN, 0.0335714, "- N/A -   "
7.25, 238.726, 0.0122038, NaN, NaN, NaN, 0.0335714, "- N/A -   "
7.26, 238.962, 0.0122205, NaN, NaN, NaN, 0.0347922, "- N/A -   "
7.27, 239.315, 0.0122371, NaN, NaN, NaN, 0.0347922, "- N/A -   "
7.28, 239.787, 0.012251, NaN, NaN, NaN, 0.0347922, "- N/A -   "
7.29, 240.0231, 0.0122677, NaN, NaN, NaN, 0.03601294, "- N/A -   "
7.3, 240.377, 0.0122844, NaN, NaN, NaN, 0.0347922, "- N/A -   "
7.31, 240.849, 0.0123038, NaN, NaN, NaN, 0.0347922, "- N/A -   "
7.32, 241.085, 0.0123204, NaN, NaN, NaN, 0.0335714, "- N/A -   "
7.33, 241.556, 0.0123427, NaN, NaN, NaN, 0.0323506, "- N/A -   "
7.34, 242.028, 0.0123621, NaN, NaN, NaN, 0.03112983, "- N/A -   "
7.35, 242.5, 0.01237876, NaN, NaN, NaN, 0.0299091, "- N/A -   "
7.36, 242.736, 0.0123982, NaN, NaN, NaN, 0.0286883, "- N/A -   "
7.37, 243.207, 0.0124149, NaN, NaN, NaN, 0.0286883, "- N/A -   "
7.38, 243.56, 0.0124315, NaN, NaN, NaN, 0.0286883, "- N/A -   "
7.39, 243.914, 0.0124482, NaN, NaN, NaN, 0.0286883, "- N/A -   "
7.4, 244.15, 0.0124676, NaN, NaN, NaN, 0.0286883, "- N/A -   "
7.41, 244.503, 0.0124843, NaN, NaN, NaN, 0.0274675, "- N/A -   "
7.42, 244.857, 0.0125009, NaN, NaN, NaN, 0.0286883, "- N/A -   "
7.43, 245.092, 0.0125148, NaN, NaN, NaN, 0.0286883, "- N/A -   "
7.44, 245.446, 0.0125315, NaN, NaN, NaN, 0.0286883, "- N/A -   "
7.45, 245.917, 0.0125481, NaN, NaN, NaN, 0.0286883, "- N/A -   "
7.46, 246.27, 0.0125648, NaN, NaN, NaN, 0.0286883, "- N/A -   "
7.47, 246.506, 0.0125815, NaN, NaN, NaN, 0.0286883, "- N/A -   "
7.48, 246.86, 0.0125981, NaN, NaN, NaN, 0.0299091, "- N/A -   "
7.49, 247.213, 0.012612, NaN, NaN, NaN, 0.0299091, "- N/A -   "
7.5, 247.567, 0.0126287, NaN, NaN, NaN, 0.0299091, "- N/A -   "
7.51, 247.802, 0.01264255, NaN, NaN, NaN, 0.03112983, "- N/A -   "
7.52, 248.038, 0.0126564, NaN, NaN, NaN, 0.0323506, "- N/A -   "
7.53, 248.3913, 0.0126731, NaN, NaN, NaN, 0.0323506, "- N/A -   "
7.54, 248.627, 0.012687, NaN, NaN, NaN, 0.0335714, "- N/A -   "
7.55, 248.98, 0.0127036, NaN, NaN, NaN, 0.0347922, "- N/A -   "
7.56, 249.216, 0.0127175, NaN, NaN, NaN, 0.0347922, "- N/A -   "
7.57, 249.57, 0.0127314, NaN, NaN, NaN, 0.03601294, "- N/A -   "
7.58, 249.6874, 0.0127453, NaN, NaN, NaN, 0.0372337, "- N/A -   "
7.59, 250.041, 0.0127592, NaN, NaN, NaN, 0.0384545, "- N/A -   "
7.6, 250.277, 0.0127758, NaN, NaN, NaN, 0.0396753, "- N/A -   "
[...]
34.61, 1350.72, 0.0578009, NaN, NaN, NaN, 0.0347922, "- N/A -   "
34.71, 1355.49, 0.05797858, NaN, NaN, NaN, 0.0299091, "- N/A -   "
34.81, 1359.78, 0.05814241, NaN, NaN, NaN, 0.03112983, "- N/A -   "
34.91, 1363.36, 0.0582868, NaN, NaN, NaN, 0.04089605, "- N/A -   "
35.01, 1367.66, 0.05845063, NaN, NaN, NaN, 0.04211683, "- N/A -   "
35.11, 1372.19, 0.05862001, NaN, NaN, NaN, 0.04211683, "- N/A -   "
35.21, 1377.2, 0.0588061, NaN, NaN, NaN, 0.0323506, "- N/A -   "
35.31, 1381.97, 0.0589838, NaN, NaN, NaN, 0.0286883, "- N/A -   "
35.41, 1385.9, 0.0591393, NaN, NaN, NaN, 0.0335714, "- N/A -   "
35.51, 1390.194, 0.0593031, NaN, NaN, NaN, 0.03601294, "- N/A -   "
35.61, 1394.37, 0.05945859, NaN, NaN, NaN, 0.0396753, "- N/A -   "
35.71, 1398.18, 0.0596085, NaN, NaN, NaN, 0.04699994, "- N/A -   "
35.81, 1403.431, 0.0598001, NaN, NaN, NaN, 0.0372337, "- N/A -   "
35.91, 1408.2, 0.0599751, NaN, NaN, NaN, 0.0323506, "- N/A -   "
36.01, 1412.02, 0.06012501, NaN, NaN, NaN, 0.0396753, "- N/A -   "
36.11, 1416.55, 0.0602999, NaN, NaN, NaN, 0.03601294, "- N/A -   "
36.21, 1421.2, 0.0604693, NaN, NaN, NaN, 0.0347922, "- N/A -   "
36.31, 1425.13, 0.060622, NaN, NaN, NaN, 0.04089605, "- N/A -   "
36.41, 1429.55, 0.06079143, NaN, NaN, NaN, 0.0396753, "- N/A -   "
36.51, 1434.198, 0.0609664, NaN, NaN, NaN, 0.0372337, "- N/A -   "
36.61, 1438.61, 0.0611385, NaN, NaN, NaN, 0.0347922, "- N/A -   "
36.71, 1443.26, 0.0613107, NaN, NaN, NaN, 0.03112983, "- N/A -   "
36.81, 1447.43, 0.06146896, NaN, NaN, NaN, 0.0347922, "- N/A -   "
36.91, 1451.85, 0.06163556, NaN, NaN, NaN, 0.0347922, "- N/A -   "
37.01, 1455.9, 0.0617911, NaN, NaN, NaN, 0.0396753, "- N/A -   "
37.11, 1460.08, 0.06194656, NaN, NaN, NaN, 0.0445584, "- N/A -   "
37.21, 1464.73, 0.0621215, NaN, NaN, NaN, 0.04089605, "- N/A -   "
37.31, 1469.5, 0.06230476, NaN, NaN, NaN, 0.0347922, "- N/A -   "
37.41, 1473.91, 0.0624686, NaN, NaN, NaN, 0.0347922, "- N/A -   "
37.51, 1478.679, 0.06265185, NaN, NaN, NaN, 0.0274675, "- N/A -   "
37.61, 1482.85, 0.06280458, NaN, NaN, NaN, 0.0335714, "- N/A -   "
37.71, 1486.311, 0.062949, NaN, NaN, NaN, 0.0433376, "- N/A -   "
37.81, 1490.72, 0.0631128, NaN, NaN, NaN, 0.0445584, "- N/A -   "
37.91, 1495.85, 0.0633016, NaN, NaN, NaN, 0.03601294, "- N/A -   "
38.01, 1500.62, 0.06347933, NaN, NaN, NaN, 0.0299091, "- N/A -   "
38.11, 1505.03, 0.06364871, NaN, NaN, NaN, 0.0286883, "- N/A -   "
38.21, 1509.21, 0.06381254, NaN, NaN, NaN, 0.0299091, "- N/A -   "
38.31, 1512.785, 0.06395415, NaN, NaN, NaN, 0.04089605, "- N/A -   "
38.41, 1516.96, 0.0641096, NaN, NaN, NaN, 0.04577916, "- N/A -   "
38.51, 1521.61, 0.06428181, NaN, NaN, NaN, 0.0433376, "- N/A -   "
38.61, 1526.62, 0.06446785, NaN, NaN, NaN, 0.0347922, "- N/A -   "
38.71, 1531.269, 0.06464556, NaN, NaN, NaN, 0.0299091, "- N/A -   "
38.81, 1535.44, 0.06480384, NaN, NaN, NaN, 0.0335714, "- N/A -   "
38.91, 1539.62, 0.06496211, NaN, NaN, NaN, 0.0372337, "- N/A -   "
39.01, 1544.03, 0.06512872, NaN, NaN, NaN, 0.0384545, "- N/A -   "
39.11, 1547.73, 0.0652759, NaN, NaN, NaN, 0.04699994, "- N/A -   "
39.21, 1552.97, 0.0654647, NaN, NaN, NaN, 0.03601294, "- N/A -   "
39.31, 1557.86, 0.0656452, NaN, NaN, NaN, 0.0299091, "- N/A -   "
39.41, 1561.8, 0.06580347, NaN, NaN, NaN, 0.0335714, "- N/A -   "
39.51, 1566.57, 0.0659784, NaN, NaN, NaN, 0.0299091, "- N/A -   "
39.61, 1570.86, 0.06613945, NaN, NaN, NaN, 0.0335714, "- N/A -   "
39.71, 1574.44, 0.0662811, NaN, NaN, NaN, 0.0445584, "- N/A -   "
39.81, 1578.85, 0.06645045, NaN, NaN, NaN, 0.0433376, "- N/A -   "
39.91, 1583.86, 0.06662816, NaN, NaN, NaN, 0.0384545, "- N/A -   "
40.01, 1588.27, 0.0668003, NaN, NaN, NaN, 0.03601294, "- N/A -   "
40.11, 1592.68, 0.0669697, NaN, NaN, NaN, 0.0347922, "- N/A -   "
40.21, 1597.1, 0.06713909, NaN, NaN, NaN, 0.0347922, "- N/A -   "
40.31, 1601.63, 0.06730569, NaN, NaN, NaN, 0.0335714, "- N/A -   "
40.41, 1605.44, 0.06746119, NaN, NaN, NaN, 0.0384545, "- N/A -   "
40.51, 1609.62, 0.06761391, NaN, NaN, NaN, 0.0445584, "- N/A -   "
40.61, 1614.39, 0.06779162, NaN, NaN, NaN, 0.04089605, "- N/A -   "
40.71, 1619.4, 0.06798044, NaN, NaN, NaN, 0.0299091, "- N/A -   "
40.81, 1623.57, 0.06814427, NaN, NaN, NaN, 0.03112983, "- N/A -   "
40.91, 1627.98, 0.06831365, NaN, NaN, NaN, 0.03112983, "- N/A -   "
41.01, 1632.16, 0.06846915, NaN, NaN, NaN, 0.0347922, "- N/A -   "
41.11, 1635.73, 0.0686108, NaN, NaN, NaN, 0.04577916, "- N/A -   "
41.21, 1639.91, 0.06877182, NaN, NaN, NaN, 0.0482207, "- N/A -   "
41.31, 1645.15, 0.06896619, NaN, NaN, NaN, 0.0372337, "- N/A -   "
41.41, 1649.33, 0.0691328, NaN, NaN, NaN, 0.03601294, "- N/A -   "
41.51, 1654.1, 0.06931328, NaN, NaN, NaN, 0.03112983, "- N/A -   "
41.61, 1658.511, 0.06948266, NaN, NaN, NaN, 0.0299091, "- N/A -   "
41.71, 1662.21, 0.0696271, NaN, NaN, NaN, 0.0396753, "- N/A -   "
41.81, 1666.26, 0.0697881, NaN, NaN, NaN, 0.04211683, "- N/A -   "
41.91, 1670.56, 0.06994916, NaN, NaN, NaN, 0.0433376, "- N/A -   "
42.01, 1675.44, 0.07013242, NaN, NaN, NaN, 0.03601294, "- N/A -   "
42.11, 1680.334, 0.07031569, NaN, NaN, NaN, 0.0286883, "- N/A -   "
42.21, 1684.39, 0.07047674, NaN, NaN, NaN, 0.03112983, "- N/A -   "
42.31, 1688.56, 0.07063501, NaN, NaN, NaN, 0.0347922, "- N/A -   "
42.41, 1692.74, 0.0707988, NaN, NaN, NaN, 0.0372337, "- N/A -   "
42.51, 1696.55, 0.070946, NaN, NaN, NaN, 0.0445584, "- N/A -   "
42.61, 1701.08, 0.07111817, NaN, NaN, NaN, 0.04211683, "- N/A -   "
42.71, 1706.09, 0.07130421, NaN, NaN, NaN, 0.0335714, "- N/A -   "
42.81, 1710.147, 0.07146526, NaN, NaN, NaN, 0.03601294, "- N/A -   "
42.91, 1714.56, 0.07163465, NaN, NaN, NaN, 0.03601294, "- N/A -   "
43.01, 1718.97, 0.071804, NaN, NaN, NaN, 0.0335714, "- N/A -   "
43.11, 1722.907, 0.0719568, NaN, NaN, NaN, 0.0396753, "- N/A -   "
43.21, 1727.44, 0.07212613, NaN, NaN, NaN, 0.0384545, "- N/A -   "
43.31, 1731.61, 0.07228718, NaN, NaN, NaN, 0.04089605, "- N/A -   "
43.41, 1736.26, 0.0724649, NaN, NaN, NaN, 0.03601294, "- N/A -   "
43.51, 1740.68, 0.07263705, NaN, NaN, NaN, 0.0335714, "- N/A -   "
43.61, 1745.21, 0.07281199, NaN, NaN, NaN, 0.03112983, "- N/A -   "
43.71, 1749.5, 0.07297859, NaN, NaN, NaN, 0.0299091, "- N/A -   "
43.81, 1753.197, 0.0731285, NaN, NaN, NaN, 0.0384545, "- N/A -   "
43.91, 1757.25, 0.07328404, NaN, NaN, NaN, 0.0433376, "- N/A -   "
44.01, 1761.54, 0.07344787, NaN, NaN, NaN, 0.0445584, "- N/A -   "
44.11, 1766.55, 0.07363668, NaN, NaN, NaN, 0.0347922, "- N/A -   "
44.21, 1770.85, 0.07380329, NaN, NaN, NaN, 0.0347922, "- N/A -   "
44.31, 1775.5, 0.07397822, NaN, NaN, NaN, 0.0299091, "- N/A -   "
44.41, 1779.55, 0.0741393, NaN, NaN, NaN, 0.0335714, "- N/A -   "
44.51, 1783.25, 0.07428922, NaN, NaN, NaN, 0.04089605, "- N/A -   "
44.61, 1787.303, 0.07445027, NaN, NaN, NaN, 0.0445584, "- N/A -   "
44.71, 1791.95, 0.07462521, NaN, NaN, NaN, 0.04089605, "- N/A -   "
44.81, 1796.96, 0.07480847, NaN, NaN, NaN, 0.0323506, "- N/A -   "
44.91, 1801.37, 0.07498063, NaN, NaN, NaN, 0.0299091, "- N/A -   "
45.01, 1805.67, 0.07515001, NaN, NaN, NaN, 0.0299091, "- N/A -   "
45.11, 1809.13, 0.0752944, NaN, NaN, NaN, 0.0396753, "- N/A -   "
45.21, 1813.18, 0.07544435, NaN, NaN, NaN, 0.04577916, "- N/A -   "
45.31, 1817.593, 0.07561373, NaN, NaN, NaN, 0.0445584, "- N/A -   "
45.41, 1822.24, 0.07579144, NaN, NaN, NaN, 0.04089605, "- N/A -   "
45.51, 1827.25, 0.07598026, NaN, NaN, NaN, 0.0299091, "- N/A -   "
45.61, 1831.307, 0.07614131, NaN, NaN, NaN, 0.0335714, "- N/A -   "
45.71, 1835.24, 0.0762968, NaN, NaN, NaN, 0.0384545, "- N/A -   "
45.81, 1839.77, 0.0764634, NaN, NaN, NaN, 0.0372337, "- N/A -   "
45.91, 1843.47, 0.07661614, NaN, NaN, NaN, 0.0433376, "- N/A -   "
46.01, 1848.12, 0.07679108, NaN, NaN, NaN, 0.04089605, "- N/A -   "
46.11, 1853.13, 0.07698267, NaN, NaN, NaN, 0.0299091, "- N/A -   "
46.21, 1857.18, 0.07714094, NaN, NaN, NaN, 0.0335714, "- N/A -   "
46.31, 1861.12, 0.07729645, NaN, NaN, NaN, 0.0384545, "- N/A -   "
46.41, 1865.89, 0.0774686, NaN, NaN, NaN, 0.0347922, "- N/A -   "
46.51, 1869.47, 0.0776241, NaN, NaN, NaN, 0.0396753, "- N/A -   "
46.61, 1873.88, 0.07779071, NaN, NaN, NaN, 0.0396753, "- N/A -   "
46.71, 1878.29, 0.07796009, NaN, NaN, NaN, 0.0384545, "- N/A -   "
46.81, 1882.824, 0.07813502, NaN, NaN, NaN, 0.0347922, "- N/A -   "
46.91, 1887.117, 0.0783044, NaN, NaN, NaN, 0.0347922, "- N/A -   "
47.01, 1891.53, 0.0784738, NaN, NaN, NaN, 0.0323506, "- N/A -   "
47.11, 1895.703, 0.0786348, NaN, NaN, NaN, 0.03601294, "- N/A -   "
47.21, 1899.76, 0.07879589, NaN, NaN, NaN, 0.0372337, "- N/A -   "
47.31, 1903.57, 0.07894861, NaN, NaN, NaN, 0.0433376, "- N/A -   "
47.385, 1906.91, 0.07907634, NaN, NaN, NaN, 0.0433376, "- N/A -   "