File: 2_Tensile_Data/Hamel_ForceTest_Bolt9_Test4.csv
Time, Load (lb), Position (in), AxialStrain (in), TransverseStrain (in), Auxiliary (), Control Out (V), Stress (psi)
0.0, 1.41537, 0.0, NaN, NaN, NaN, 0.101935, "- N/A -   "
0.01, 1.88716, 3.054427E-5, NaN, NaN, NaN, 0.104376, "- N/A -   "
0.02, 2.35895, 6.6642e-05, NaN, NaN, NaN, 0.09705182, "- N/A -   "
0.03, 2.83074, 9.718631E-5, NaN, NaN, NaN, 0.0897272, "- N/A -   "
0.04, 3.18458, 0.000130507, NaN, NaN, NaN, 0.08240249, "- N/A -   "
0.05, 3.65637, 1.610516E-4, NaN, NaN, NaN, 0.0762986, "- N/A -   "
0.06, 4.12816, 0.000194373, NaN, NaN, NaN, 0.0689739, "- N/A -   "
0.07, 4.482, 0.000224917, NaN, NaN, NaN, 0.0640908, "- N/A -   "
0.08, 4.83585, 0.000249908, NaN, NaN, NaN, 0.0592077, "- N/A -   "
0.09, 5.071741, 2.721217E-4, NaN, NaN, NaN, 0.05676616, "- N/A -   "
0.1, 5.425584, 0.000294336, NaN, NaN, NaN, 0.0555454, "- N/A -   "
0.11, 5.66148, 0.000313773, NaN, NaN, NaN, 0.0531038, "- N/A -   "
0.12, 5.897373, 0.000335987, NaN, NaN, NaN, 0.05066227, "- N/A -   "
0.13, 6.13327, 0.000358201, NaN, NaN, NaN, 0.0494415, "- N/A -   "
0.14, 6.369163, 3.748615E-4, NaN, NaN, NaN, 0.0482207, "- N/A -   "
0.15, 6.60506, 0.000391522, NaN, NaN, NaN, 0.0482207, "- N/A -   "
0.16, 6.84095, 4.081825E-4, NaN, NaN, NaN, 0.0482207, "- N/A -   "
0.17, 6.9589, 0.000424843, NaN, NaN, NaN, 0.0482207, "- N/A -   "
0.18, 7.1948, 0.000441504, NaN, NaN, NaN, 0.0494415, "- N/A -   "
0.19, 7.430691, 4.553873E-4, NaN, NaN, NaN, 0.05066227, "- N/A -   "
0.2, 7.548638, 0.000469271, NaN, NaN, NaN, 0.05066227, "- N/A -   "
0.21, 7.90248, 0.000485932, NaN, NaN, NaN, 0.05066227, "- N/A -   "
0.22, 8.020428, 0.000502592, NaN, NaN, NaN, 0.05066227, "- N/A -   "
0.23, 8.256323, 5.192526E-4, NaN, NaN, NaN, 0.05066227, "- N/A -   "
0.24, 8.37427, 5.359131E-4, NaN, NaN, NaN, 0.05066227, "- N/A -   "
0.25, 8.610166, 5.525736E-4, NaN, NaN, NaN, 0.05066227, "- N/A -   "
0.26, 8.846061, 0.000569234, NaN, NaN, NaN, 0.05188305, "- N/A -   "
0.27, 9.081955, 5.858946E-4, NaN, NaN, NaN, 0.05188305, "- N/A -   "
0.28, 9.31785, 0.000602555, NaN, NaN, NaN, 0.05188305, "- N/A -   "
0.29, 9.553744, 0.000619216, NaN, NaN, NaN, 0.05066227, "- N/A -   "
0.3, 9.78964, 0.000638653, NaN, NaN, NaN, 0.0494415, "- N/A -   "
0.31, 10.0255, 0.00065809, NaN, NaN, NaN, 0.0482207, "- N/A -   "
0.32, 10.26143, 6.747507E-4, NaN, NaN, NaN, 0.0482207, "- N/A -   "
0.33, 10.4973, 0.000694188, NaN, NaN, NaN, 0.04699994, "- N/A -   "
0.34, 10.73322, 7.136252E-4, NaN, NaN, NaN, 0.04577916, "- N/A -   "
0.35, 10.9691, 0.000733062, NaN, NaN, NaN, 0.0445584, "- N/A -   "
0.36, 11.323, 7.552765E-4, NaN, NaN, NaN, 0.0433376, "- N/A -   "
0.37, 11.5589, 0.000774714, NaN, NaN, NaN, 0.04089605, "- N/A -   "
0.38, 11.7947, 0.000791374, NaN, NaN, NaN, 0.04089605, "- N/A -   "
0.39, 11.9127, 8.108115E-4, NaN, NaN, NaN, 0.0396753, "- N/A -   "
0.4, 12.2665, 8.302488E-4, NaN, NaN, NaN, 0.0396753, "- N/A -   "
0.41, 12.5024, 8.469093E-4, NaN, NaN, NaN, 0.0384545, "- N/A -   "
0.53, 15.4511, 0.001063496, NaN, NaN, NaN, 0.03112983, "- N/A -   "
0.65, 18.16391, 0.00126898, NaN, NaN, NaN, 0.0286883, "- N/A -   "
0.77, 20.7588, 0.001455018, NaN, NaN, NaN, 0.0347922, "- N/A -   "
0.89, 23.4715, 0.00163551, NaN, NaN, NaN, 0.0445584, "- N/A -   "
1.01, 26.5382, 0.00183266, NaN, NaN, NaN, 0.0445584, "- N/A -   "
1.13, 30.1946, 0.00206868, NaN, NaN, NaN, 0.0299091, "- N/A -   "
1.25, 33.3791, 0.00226583, NaN, NaN, NaN, 0.0299091, "- N/A -   "
1.37, 36.5637, 0.00245187, NaN, NaN, NaN, 0.03601294, "- N/A -   "
1.49, 39.7483, 0.00264624, NaN, NaN, NaN, 0.0384545, "- N/A -   "
1.61, 43.0508, 0.00283229, NaN, NaN, NaN, 0.04577916, "- N/A -   "
1.73, 47.179, 0.00304887, NaN, NaN, NaN, 0.0372337, "- N/A -   "
1.85, 50.9533, 0.00326546, NaN, NaN, NaN, 0.0299091, "- N/A -   "
1.97, 54.6097, 0.00345428, NaN, NaN, NaN, 0.0347922, "- N/A -   "
2.09, 58.5019, 0.00365976, NaN, NaN, NaN, 0.0323506, "- N/A -   "
2.21, 62.0404, 0.00384025, NaN, NaN, NaN, 0.04089605, "- N/A -   "
2.33, 66.05058, 0.00404573, NaN, NaN, NaN, 0.0396753, "- N/A -   "
2.45, 70.29669, 0.00424565, NaN, NaN, NaN, 0.0384545, "- N/A -   "
2.57, 74.42485, 0.004456687, NaN, NaN, NaN, 0.0347922, "- N/A -   "
2.69, 78.4351, 0.004656613, NaN, NaN, NaN, 0.0335714, "- N/A -   "
2.81, 82.44528, 0.004859315, NaN, NaN, NaN, 0.0335714, "- N/A -   "
2.93, 86.33755, 0.00504813, NaN, NaN, NaN, 0.0372337, "- N/A -   "
3.05, 90.34776, 0.005234177, NaN, NaN, NaN, 0.0433376, "- N/A -   "
3.17, 94.9477, 0.00545354, NaN, NaN, NaN, 0.0347922, "- N/A -   "
3.29, 99.0759, 0.005656244, NaN, NaN, NaN, 0.0347922, "- N/A -   "
3.41, 103.44, 0.0058645, NaN, NaN, NaN, 0.0299091, "- N/A -   "
3.53, 107.45, 0.006056096, NaN, NaN, NaN, 0.03601294, "- N/A -   "
3.65, 111.224, 0.006233808, NaN, NaN, NaN, 0.0445584, "- N/A -   "
3.77, 115.706, 0.00644206, NaN, NaN, NaN, 0.04211683, "- N/A -   "
3.89, 120.188, 0.006655874, NaN, NaN, NaN, 0.03601294, "- N/A -   "
4.01, 124.788, 0.00686135, NaN, NaN, NaN, 0.0323506, "- N/A -   "
4.13, 129.152, 0.00706406, NaN, NaN, NaN, 0.03112983, "- N/A -   "
4.25, 132.9268, 0.007238992, NaN, NaN, NaN, 0.04211683, "- N/A -   "
4.37, 137.055, 0.00743336, NaN, NaN, NaN, 0.0445584, "- N/A -   "
4.49, 141.773, 0.0076444, NaN, NaN, NaN, 0.0396753, "- N/A -   "
4.61, 146.6087, 0.007869315, NaN, NaN, NaN, 0.0286883, "- N/A -   "
4.73, 150.855, 0.008060911, NaN, NaN, NaN, 0.0323506, "- N/A -   "
4.85, 154.747, 0.008244176, NaN, NaN, NaN, 0.0396753, "- N/A -   "
4.97, 158.9932, 0.008441325, NaN, NaN, NaN, 0.04211683, "- N/A -   "
5.09, 163.357, 0.008641251, NaN, NaN, NaN, 0.04089605, "- N/A -   "
5.21, 167.9572, 0.008855062, NaN, NaN, NaN, 0.0347922, "- N/A -   "
5.33, 172.203, 0.009054988, NaN, NaN, NaN, 0.0347922, "- N/A -   "
5.45, 176.567, 0.009257691, NaN, NaN, NaN, 0.0335714, "- N/A -   "
5.57, 180.46, 0.009452064, NaN, NaN, NaN, 0.03601294, "- N/A -   "
5.69, 184.47, 0.00964366, NaN, NaN, NaN, 0.0396753, "- N/A -   "
5.81, 188.716, 0.00984914, NaN, NaN, NaN, 0.0372337, "- N/A -   "
5.93, 192.844, 0.0100546, NaN, NaN, NaN, 0.03601294, "- N/A -   "
6.05, 196.854, 0.0102573, NaN, NaN, NaN, 0.0347922, "- N/A -   "
6.17, 200.865, 0.0104572, NaN, NaN, NaN, 0.0347922, "- N/A -   "
6.29, 204.521, 0.01065162, NaN, NaN, NaN, 0.0372337, "- N/A -   "
6.41, 208.295, 0.01084044, NaN, NaN, NaN, 0.04089605, "- N/A -   "
6.53, 212.4234, 0.0110431, NaN, NaN, NaN, 0.0396753, "- N/A -   "
6.65, 216.67, 0.011257, NaN, NaN, NaN, 0.0335714, "- N/A -   "
6.77, 220.68, 0.0114569, NaN, NaN, NaN, 0.0335714, "- N/A -   "
6.89, 225.044, 0.0116679, NaN, NaN, NaN, 0.0286883, "- N/A -   "
7.01, 228.228, 0.0118373, NaN, NaN, NaN, 0.0433376, "- N/A -   "
7.13, 232.357, 0.0120344, NaN, NaN, NaN, 0.0445584, "- N/A -   "
7.25, 236.839, 0.01225103, NaN, NaN, NaN, 0.03601294, "- N/A -   "
7.37, 241.085, 0.0124621, NaN, NaN, NaN, 0.0323506, "- N/A -   "
7.49, 245.328, 0.0126731, NaN, NaN, NaN, 0.0262467, "- N/A -   "
7.61, 248.863, 0.012848, NaN, NaN, NaN, 0.0372337, "- N/A -   "
7.73, 252.515, 0.0130313, NaN, NaN, NaN, 0.0445584, "- N/A -   "
7.85, 257.11, 0.01324233, NaN, NaN, NaN, 0.0396753, "- N/A -   "
7.97, 261.588, 0.0134617, NaN, NaN, NaN, 0.03112983, "- N/A -   "
8.09, 265.712, 0.0136672, NaN, NaN, NaN, 0.0299091, "- N/A -   "
8.21, 269.6, 0.0138477, NaN, NaN, NaN, 0.0384545, "- N/A -   "
8.33, 273.7239, 0.0140476, NaN, NaN, NaN, 0.0384545, "- N/A -   "
8.45, 277.612, 0.0142309, NaN, NaN, NaN, 0.04577916, "- N/A -   "
8.57, 282.561, 0.0144585, NaN, NaN, NaN, 0.0335714, "- N/A -   "
8.69, 286.9204, 0.0146668, NaN, NaN, NaN, 0.0299091, "- N/A -   "
8.81, 290.8087, 0.0148556, NaN, NaN, NaN, 0.03601294, "- N/A -   "
8.93, 295.05, 0.0150528, NaN, NaN, NaN, 0.03601294, "- N/A -   "
9.05, 298.5852, 0.0152277, NaN, NaN, NaN, 0.04699994, "- N/A -   "
9.17, 303.416, 0.0154471, NaN, NaN, NaN, 0.0396753, "- N/A -   "
9.29, 308.011, 0.0156581, NaN, NaN, NaN, 0.0335714, "- N/A -   "
9.41, 312.371, 0.0158608, NaN, NaN, NaN, 0.0335714, "- N/A -   "
9.53, 316.73, 0.0160607, NaN, NaN, NaN, 0.0323506, "- N/A -   "
9.65, 320.9722, 0.0162551, NaN, NaN, NaN, 0.0347922, "- N/A -   "
9.77, 324.86, 0.0164411, NaN, NaN, NaN, 0.04089605, "- N/A -   "
9.89, 329.102, 0.01663552, NaN, NaN, NaN, 0.0433376, "- N/A -   "
10.01, 334.051, 0.0168549, NaN, NaN, NaN, 0.0347922, "- N/A -   "
10.13, 338.528, 0.0170604, NaN, NaN, NaN, 0.0323506, "- N/A -   "
10.25, 343.3591, 0.0172742, NaN, NaN, NaN, 0.0262467, "- N/A -   "
10.37, 347.247, 0.0174519, NaN, NaN, NaN, 0.03601294, "- N/A -   "
10.49, 351.136, 0.0176296, NaN, NaN, NaN, 0.04577916, "- N/A -   "
10.61, 355.8487, 0.0178434, NaN, NaN, NaN, 0.0396753, "- N/A -   "
10.73, 360.68, 0.0180572, NaN, NaN, NaN, 0.0347922, "- N/A -   "
10.85, 365.7461, 0.018271, NaN, NaN, NaN, 0.0286883, "- N/A -   "
10.97, 369.7522, 0.0184543, NaN, NaN, NaN, 0.0347922, "- N/A -   "
11.09, 373.758, 0.0186376, NaN, NaN, NaN, 0.0433376, "- N/A -   "
11.21, 378.353, 0.0188375, NaN, NaN, NaN, 0.04211683, "- N/A -   "
11.33, 383.184, 0.0190485, NaN, NaN, NaN, 0.0372337, "- N/A -   "
11.45, 388.133, 0.0192651, NaN, NaN, NaN, 0.0299091, "- N/A -   "
11.57, 392.8461, 0.0194623, NaN, NaN, NaN, 0.03112983, "- N/A -   "
11.69, 396.97, 0.0196511, NaN, NaN, NaN, 0.03601294, "- N/A -   "
11.81, 401.212, 0.0198343, NaN, NaN, NaN, 0.0433376, "- N/A -   "
11.93, 406.16, 0.0200454, NaN, NaN, NaN, 0.0396753, "- N/A -   "
12.05, 411.4626, 0.0202703, NaN, NaN, NaN, 0.0286883, "- N/A -   "
12.17, 415.469, 0.020448, NaN, NaN, NaN, 0.0372337, "- N/A -   "
12.29, 420.4174, 0.020659, NaN, NaN, NaN, 0.0335714, "- N/A -   "
12.41, 424.8948, 0.0208479, NaN, NaN, NaN, 0.0372337, "- N/A -   "
12.53, 429.608, 0.021045, NaN, NaN, NaN, 0.0384545, "- N/A -   "
12.65, 434.4387, 0.0212505, NaN, NaN, NaN, 0.0384545, "- N/A -   "
12.77, 439.0339, 0.0214504, NaN, NaN, NaN, 0.0384545, "- N/A -   "
12.89, 444.218, 0.021667, NaN, NaN, NaN, 0.0299091, "- N/A -   "
13.01, 448.813, 0.0218614, NaN, NaN, NaN, 0.0323506, "- N/A -   "
13.13, 453.173, 0.0220502, NaN, NaN, NaN, 0.0372337, "- N/A -   "
13.25, 457.5326, 0.0222335, NaN, NaN, NaN, 0.0445584, "- N/A -   "
13.37, 462.599, 0.02244171, NaN, NaN, NaN, 0.04211683, "- N/A -   "
13.49, 467.901, 0.0226583, NaN, NaN, NaN, 0.0335714, "- N/A -   "
13.61, 472.614, 0.0228582, NaN, NaN, NaN, 0.0347922, "- N/A -   "
13.73, 477.563, 0.0230637, NaN, NaN, NaN, 0.0323506, "- N/A -   "
13.85, 481.569, 0.0232331, NaN, NaN, NaN, 0.0445584, "- N/A -   "
13.97, 486.636, 0.0234386, NaN, NaN, NaN, 0.0433376, "- N/A -   "
14.09, 492.056, 0.0236579, NaN, NaN, NaN, 0.0335714, "- N/A -   "
14.21, 497.476, 0.02387729, NaN, NaN, NaN, 0.0250259, "- N/A -   "
14.33, 502.1887, 0.0240717, NaN, NaN, NaN, 0.0274675, "- N/A -   "
14.45, 505.9591, 0.0242327, NaN, NaN, NaN, 0.0445584, "- N/A -   "
14.57, 510.672, 0.02442431, NaN, NaN, NaN, 0.0494415, "- N/A -   "
14.69, 515.8656, 0.0246353, NaN, NaN, NaN, 0.0445584, "- N/A -   "
14.81, 522.1345, 0.0248825, NaN, NaN, NaN, 0.0225844, "- N/A -   "
14.93, 526.5109, 0.025063, NaN, NaN, NaN, 0.03112983, "- N/A -   "
15.05, 531.2421, 0.0252518, NaN, NaN, NaN, 0.0372337, "- N/A -   "
15.17, 535.9733, 0.0254406, NaN, NaN, NaN, 0.04089605, "- N/A -   "
15.29, 540.7046, 0.0256322, NaN, NaN, NaN, 0.0445584, "- N/A -   "
15.41, 546.619, 0.0258627, NaN, NaN, NaN, 0.03112983, "- N/A -   "
15.53, 551.35, 0.0260598, NaN, NaN, NaN, 0.0323506, "- N/A -   "
15.65, 556.3177, 0.026257, NaN, NaN, NaN, 0.0347922, "- N/A -   "
15.77, 561.404, 0.0264569, NaN, NaN, NaN, 0.0335714, "- N/A -   "
15.89, 565.78, 0.0266374, NaN, NaN, NaN, 0.04211683, "- N/A -   "
16.01, 570.9845, 0.0268429, NaN, NaN, NaN, 0.04089605, "- N/A -   "
16.13, 576.4254, 0.02705667, NaN, NaN, NaN, 0.0347922, "- N/A -   "
16.25, 581.63, 0.0272649, NaN, NaN, NaN, 0.03112983, "- N/A -   "
16.37, 586.361, 0.0274565, NaN, NaN, NaN, 0.0347922, "- N/A -   "
16.49, 591.4471, 0.0276564, NaN, NaN, NaN, 0.0347922, "- N/A -   "
16.61, 596.06, 0.0278425, NaN, NaN, NaN, 0.0396753, "- N/A -   "
16.73, 601.1461, 0.0280396, NaN, NaN, NaN, 0.04089605, "- N/A -   "
16.85, 606.7053, 0.0282646, NaN, NaN, NaN, 0.03112983, "- N/A -   "
16.97, 611.91, 0.0284617, NaN, NaN, NaN, 0.03112983, "- N/A -   "
17.09, 617.2323, 0.02867, NaN, NaN, NaN, 0.0274675, "- N/A -   "
17.21, 621.49, 0.0288477, NaN, NaN, NaN, 0.0396753, "- N/A -   "
17.33, 625.8668, 0.0290254, NaN, NaN, NaN, 0.0482207, "- N/A -   "
17.45, 631.663, 0.0292475, NaN, NaN, NaN, 0.0396753, "- N/A -   "
17.57, 636.985, 0.0294558, NaN, NaN, NaN, 0.0347922, "- N/A -   "
17.69, 642.4261, 0.029664, NaN, NaN, NaN, 0.03112983, "- N/A -   "
17.81, 647.039, 0.02985286, NaN, NaN, NaN, 0.03601294, "- N/A -   "
17.93, 651.652, 0.0300333, NaN, NaN, NaN, 0.04577916, "- N/A -   "
18.02, 655.3187, 0.0301833, NaN, NaN, NaN, 0.04577916, "- N/A -   "
18.03, 655.91, 0.0302, NaN, NaN, NaN, 0.0445584, "- N/A -   "
18.04, 656.265, 0.0302194, NaN, NaN, NaN, 0.0433376, "- N/A -   "
18.1, 659.104, 0.0303249, NaN, NaN, NaN, 0.04089605, "- N/A -   "
18.16, 662.0607, 0.0304388, NaN, NaN, NaN, 0.0347922, "- N/A -   "
18.22, 665.136, 0.0305526, NaN, NaN, NaN, 0.0299091, "- N/A -   "
18.28, 667.62, 0.0306526, NaN, NaN, NaN, 0.0286883, "- N/A -   "
18.34, 670.1038, 0.0307498, NaN, NaN, NaN, 0.0299091, "- N/A -   "
18.4, 672.4695, 0.03084416, NaN, NaN, NaN, 0.0335714, "- N/A -   "
18.46, 674.953, 0.0309386, NaN, NaN, NaN, 0.0347922, "- N/A -   "
18.52, 677.319, 0.0310358, NaN, NaN, NaN, 0.03601294, "- N/A -   "
18.58, 679.803, 0.0311302, NaN, NaN, NaN, 0.0396753, "- N/A -   "
18.64, 682.05, 0.0312162, NaN, NaN, NaN, 0.0445584, "- N/A -   "
18.7, 684.6524, 0.03131621, NaN, NaN, NaN, 0.04577916, "- N/A -   "
18.76, 687.491, 0.0314245, NaN, NaN, NaN, 0.04089605, "- N/A -   "
18.82, 690.5664, 0.03153835, NaN, NaN, NaN, 0.0347922, "- N/A -   "
18.88, 693.523, 0.03164942, NaN, NaN, NaN, 0.03112983, "- N/A -   "
18.94, 695.6525, 0.0317355, NaN, NaN, NaN, 0.03601294, "- N/A -   "
19, 698.2547, 0.03183824, NaN, NaN, NaN, 0.0347922, "- N/A -   "
19.06, 700.8569, 0.031941, NaN, NaN, NaN, 0.0347922, "- N/A -   "
19.12, 703.577, 0.0320437, NaN, NaN, NaN, 0.0323506, "- N/A -   "
19.18, 705.943, 0.03213535, NaN, NaN, NaN, 0.03601294, "- N/A -   "
19.24, 708.4268, 0.03222976, NaN, NaN, NaN, 0.0384545, "- N/A -   "
19.3, 710.6742, 0.0323186, NaN, NaN, NaN, 0.0433376, "- N/A -   "
19.36, 713.395, 0.03242413, NaN, NaN, NaN, 0.04089605, "- N/A -   "
19.42, 716.1151, 0.0325269, NaN, NaN, NaN, 0.0396753, "- N/A -   "
19.48, 718.954, 0.0326379, NaN, NaN, NaN, 0.0347922, "- N/A -   "
19.54, 721.556, 0.0327379, NaN, NaN, NaN, 0.0347922, "- N/A -   "
19.6, 724.0399, 0.0328379, NaN, NaN, NaN, 0.03601294, "- N/A -   "
19.66, 726.7604, 0.0329434, NaN, NaN, NaN, 0.0323506, "- N/A -   "
19.72, 729.5991, 0.0330489, NaN, NaN, NaN, 0.0299091, "- N/A -   "
19.78, 732.083, 0.03314331, NaN, NaN, NaN, 0.0323506, "- N/A -   "
19.84, 734.5669, 0.0332433, NaN, NaN, NaN, 0.0323506, "- N/A -   "
19.9, 737.169, 0.0333432, NaN, NaN, NaN, 0.0335714, "- N/A -   "
19.96, 739.298, 0.0334293, NaN, NaN, NaN, 0.0396753, "- N/A -   "
20.02, 741.782, 0.03352095, NaN, NaN, NaN, 0.04211683, "- N/A -   "
20.08, 744.148, 0.0336181, NaN, NaN, NaN, 0.0445584, "- N/A -   "
20.14, 746.868, 0.0337181, NaN, NaN, NaN, 0.0445584, "- N/A -   "
20.2, 749.707, 0.0338264, NaN, NaN, NaN, 0.0396753, "- N/A -   "
20.26, 752.6639, 0.03394024, NaN, NaN, NaN, 0.0335714, "- N/A -   "
20.32, 755.5026, 0.034043, NaN, NaN, NaN, 0.0323506, "- N/A -   "
20.38, 757.9865, 0.0341402, NaN, NaN, NaN, 0.0335714, "- N/A -   "
20.44, 760.707, 0.0342485, NaN, NaN, NaN, 0.0299091, "- N/A -   "
20.5, 763.309, 0.0343456, NaN, NaN, NaN, 0.03112983, "- N/A -   "
20.56, 765.9113, 0.0344456, NaN, NaN, NaN, 0.03112983, "- N/A -   "
20.62, 768.0404, 0.0345317, NaN, NaN, NaN, 0.0384545, "- N/A -   "
20.68, 770.1694, 0.034615, NaN, NaN, NaN, 0.0445584, "- N/A -   "
20.74, 772.6533, 0.0347094, NaN, NaN, NaN, 0.04699994, "- N/A -   "
20.8, 775.492, 0.0348149, NaN, NaN, NaN, 0.0445584, "- N/A -   "
20.86, 778.4491, 0.0349315, NaN, NaN, NaN, 0.0372337, "- N/A -   "
20.92, 781.4061, 0.03504261, NaN, NaN, NaN, 0.0335714, "- N/A -   "
20.98, 784.1266, 0.03514535, NaN, NaN, NaN, 0.03112983, "- N/A -   "
21.04, 786.847, 0.0352536, NaN, NaN, NaN, 0.0274675, "- N/A -   "
21.1, 789.5675, 0.0353536, NaN, NaN, NaN, 0.0286883, "- N/A -   "
21.16, 792.0514, 0.03545357, NaN, NaN, NaN, 0.0286883, "- N/A -   "
21.22, 794.417, 0.0355424, NaN, NaN, NaN, 0.0335714, "- N/A -   "
21.28, 796.5461, 0.0356285, NaN, NaN, NaN, 0.0384545, "- N/A -   "
21.34, 799.148, 0.03572291, NaN, NaN, NaN, 0.04089605, "- N/A -   "
21.4, 801.5138, 0.0358145, NaN, NaN, NaN, 0.04577916, "- N/A -   "
21.46, 804.234, 0.03591451, NaN, NaN, NaN, 0.04577916, "- N/A -   "
21.52, 806.955, 0.03602, NaN, NaN, NaN, 0.0433376, "- N/A -   "
21.58, 809.9118, 0.0361311, NaN, NaN, NaN, 0.0372337, "- N/A -   "
21.64, 812.9871, 0.03624772, NaN, NaN, NaN, 0.03112983, "- N/A -   "
21.7, 815.5893, 0.0363477, NaN, NaN, NaN, 0.0323506, "- N/A -   "
21.76, 818.31, 0.0364504, NaN, NaN, NaN, 0.03112983, "- N/A -   "
21.82, 820.794, 0.03653928, NaN, NaN, NaN, 0.0347922, "- N/A -   "
21.88, 823.041, 0.0366281, NaN, NaN, NaN, 0.04089605, "- N/A -   "
21.94, 825.6432, 0.0367309, NaN, NaN, NaN, 0.0384545, "- N/A -   "
22, 828.245, 0.03682806, NaN, NaN, NaN, 0.0396753, "- N/A -   "
22.06, 830.611, 0.0369197, NaN, NaN, NaN, 0.0445584, "- N/A -   "
22.12, 833.095, 0.0370141, NaN, NaN, NaN, 0.04577916, "- N/A -   "
22.18, 836.407, 0.03713073, NaN, NaN, NaN, 0.0384545, "- N/A -   "
22.24, 839.3637, 0.0372446, NaN, NaN, NaN, 0.0335714, "- N/A -   "
22.3, 842.202, 0.0373529, NaN, NaN, NaN, 0.0286883, "- N/A -   "
22.36, 844.4498, 0.0374445, NaN, NaN, NaN, 0.0323506, "- N/A -   "
22.42, 846.9337, 0.0375361, NaN, NaN, NaN, 0.03601294, "- N/A -   "
22.48, 849.5359, 0.0376389, NaN, NaN, NaN, 0.0347922, "- N/A -   "
22.54, 852.4929, 0.0377444, NaN, NaN, NaN, 0.0323506, "- N/A -   "
22.6, 854.8585, 0.03783602, NaN, NaN, NaN, 0.03601294, "- N/A -   "
22.66, 857.3424, 0.0379332, NaN, NaN, NaN, 0.0372337, "- N/A -   "
22.72, 859.9446, 0.0380276, NaN, NaN, NaN, 0.0396753, "- N/A -   "
22.78, 862.547, 0.0381276, NaN, NaN, NaN, 0.0396753, "- N/A -   "
22.84, 865.149, 0.0382275, NaN, NaN, NaN, 0.04089605, "- N/A -   "
22.9, 867.751, 0.03832473, NaN, NaN, NaN, 0.04089605, "- N/A -   "
22.96, 870.353, 0.0384247, NaN, NaN, NaN, 0.04089605, "- N/A -   "
23.02, 873.0738, 0.03853021, NaN, NaN, NaN, 0.0384545, "- N/A -   "
23.08, 876.031, 0.0386413, NaN, NaN, NaN, 0.0347922, "- N/A -   "
23.14, 878.633, 0.0387412, NaN, NaN, NaN, 0.0347922, "- N/A -   "
23.2, 881.3534, 0.038844, NaN, NaN, NaN, 0.0323506, "- N/A -   "
23.26, 883.719, 0.0389384, NaN, NaN, NaN, 0.0347922, "- N/A -   "
23.32, 886.3212, 0.03904113, NaN, NaN, NaN, 0.0335714, "- N/A -   "
23.38, 888.9234, 0.03913554, NaN, NaN, NaN, 0.0372337, "- N/A -   "
23.44, 891.5256, 0.0392299, NaN, NaN, NaN, 0.0396753, "- N/A -   "
23.5, 893.655, 0.0393188, NaN, NaN, NaN, 0.0433376, "- N/A -   "
23.56, 896.4934, 0.03942432, NaN, NaN, NaN, 0.04211683, "- N/A -   "
23.62, 899.569, 0.0395354, NaN, NaN, NaN, 0.03601294, "- N/A -   "
23.68, 902.644, 0.03964924, NaN, NaN, NaN, 0.0299091, "- N/A -   "
23.74, 905.0096, 0.0397436, NaN, NaN, NaN, 0.0323506, "- N/A -   "
23.8, 907.612, 0.0398408, NaN, NaN, NaN, 0.0335714, "- N/A -   "
23.86, 910.3322, 0.03994635, NaN, NaN, NaN, 0.03112983, "- N/A -   "
23.92, 913.0527, 0.0400519, NaN, NaN, NaN, 0.0286883, "- N/A -   "
23.98, 915.655, 0.0401463, NaN, NaN, NaN, 0.03112983, "- N/A -   "
24.04, 917.784, 0.0402351, NaN, NaN, NaN, 0.03601294, "- N/A -   "
24.1, 920.031, 0.0403212, NaN, NaN, NaN, 0.0433376, "- N/A -   "
24.16, 922.3969, 0.0404128, NaN, NaN, NaN, 0.04699994, "- N/A -   "
24.22, 925.1174, 0.0405156, NaN, NaN, NaN, 0.0445584, "- N/A -   "
24.28, 927.956, 0.0406267, NaN, NaN, NaN, 0.04089605, "- N/A -   "
24.34, 930.7948, 0.04073495, NaN, NaN, NaN, 0.03601294, "- N/A -   "
24.4, 933.634, 0.04083769, NaN, NaN, NaN, 0.0347922, "- N/A -   "
24.46, 936.4723, 0.04094876, NaN, NaN, NaN, 0.0299091, "- N/A -   "
24.52, 939.193, 0.0410515, NaN, NaN, NaN, 0.0286883, "- N/A -   "
24.58, 941.677, 0.04114868, NaN, NaN, NaN, 0.0299091, "- N/A -   "
24.64, 943.924, 0.04123476, NaN, NaN, NaN, 0.03601294, "- N/A -   "
24.7, 946.1713, 0.0413208, NaN, NaN, NaN, 0.04211683, "- N/A -   "
24.76, 948.6552, 0.041418, NaN, NaN, NaN, 0.0445584, "- N/A -   "
24.82, 951.3757, 0.041518, NaN, NaN, NaN, 0.0433376, "- N/A -   "
24.88, 954.0961, 0.04162073, NaN, NaN, NaN, 0.0433376, "- N/A -   "
24.94, 956.8166, 0.04172625, NaN, NaN, NaN, 0.0396753, "- N/A -   "
25, 960.1284, 0.04184565, NaN, NaN, NaN, 0.0323506, "- N/A -   "
25.06, 963.085, 0.04195672, NaN, NaN, NaN, 0.0262467, "- N/A -   "
25.12, 965.569, 0.04205113, NaN, NaN, NaN, 0.0286883, "- N/A -   "
25.18, 967.935, 0.0421483, NaN, NaN, NaN, 0.03112983, "- N/A -   "
25.24, 970.4189, 0.04223995, NaN, NaN, NaN, 0.0347922, "- N/A -   "
25.3, 973.021, 0.04233713, NaN, NaN, NaN, 0.0347922, "- N/A -   "
25.36, 975.7415, 0.0424371, NaN, NaN, NaN, 0.0347922, "- N/A -   "
25.42, 977.8706, 0.042526, NaN, NaN, NaN, 0.04089605, "- N/A -   "
25.48, 980.3545, 0.04261481, NaN, NaN, NaN, 0.0445584, "- N/A -   "
25.54, 982.957, 0.042712, NaN, NaN, NaN, 0.04577916, "- N/A -   "
25.6, 986.2685, 0.0428314, NaN, NaN, NaN, 0.0384545, "- N/A -   "
25.66, 988.989, 0.0429425, NaN, NaN, NaN, 0.0335714, "- N/A -   "
25.72, 991.8277, 0.0430452, NaN, NaN, NaN, 0.03112983, "- N/A -   "
25.78, 994.1933, 0.0431368, NaN, NaN, NaN, 0.03601294, "- N/A -   "
25.84, 996.677, 0.04323125, NaN, NaN, NaN, 0.0372337, "- N/A -   "
25.9, 999.6342, 0.04333954, NaN, NaN, NaN, 0.0335714, "- N/A -   "
25.96, 1002.473, 0.04344506, NaN, NaN, NaN, 0.03112983, "- N/A -   "
26.02, 1004.72, 0.04353669, NaN, NaN, NaN, 0.0347922, "- N/A -   "
26.08, 1006.97, 0.04362277, NaN, NaN, NaN, 0.04089605, "- N/A -   "
26.14, 1009.57, 0.04372273, NaN, NaN, NaN, 0.04211683, "- N/A -   "
26.2, 1012.65, 0.043831, NaN, NaN, NaN, 0.0384545, "- N/A -   "
26.232, 1013.954, 0.0438838, NaN, NaN, NaN, 0.0384545, "- N/A -   "