File: 2_Tensile_Data/Hamel_ForceTest_Bolt5_Test10.csv
Time, Load (lb), Position (in), AxialStrain (in), TransverseStrain (in), Auxiliary (), Control Out (V), Stress (psi)
0.0, 7.90248, 0.0, NaN, NaN, NaN, -0.006714277, "- N/A -   "
0.01, 8.020428, 2.776752E-6, NaN, NaN, NaN, -6.103888E-4, "- N/A -   "
0.02, 7.90248, 2.776752E-6, NaN, NaN, NaN, 0.01037661, "- N/A -   "
0.03, 8.020428, 5.553504E-6, NaN, NaN, NaN, 0.0286883, "- N/A -   "
0.04, 8.020428, 1.1107e-05, NaN, NaN, NaN, 0.04577916, "- N/A -   "
0.05, 8.256323, 2.2214e-05, NaN, NaN, NaN, 0.0604285, "- N/A -   "
0.06, 8.492218, 4.16513e-05, NaN, NaN, NaN, 0.07263627, "- N/A -   "
0.07, 8.846061, 6.108854E-5, NaN, NaN, NaN, 0.08362327, "- N/A -   "
0.08, 9.31785, 8.607931E-5, NaN, NaN, NaN, 0.09094793, "- N/A -   "
0.09, 9.78964, 0.000113847, NaN, NaN, NaN, 0.09949338, "- N/A -   "
0.1, 10.26143, 0.000141614, NaN, NaN, NaN, 0.103156, "- N/A -   "
0.11, 10.73322, 0.000174935, NaN, NaN, NaN, 0.095831, "- N/A -   "
0.12, 11.323, 0.00020548, NaN, NaN, NaN, 0.0897272, "- N/A -   "
0.13, 11.6768, 2.360239E-4, NaN, NaN, NaN, 0.084844, "- N/A -   "
0.14, 12.2665, 0.000261015, NaN, NaN, NaN, 0.08118171, "- N/A -   "
0.15, 12.5024, 2.832287E-4, NaN, NaN, NaN, 0.07751938, "- N/A -   "
0.16, 12.8563, 3.054427E-4, NaN, NaN, NaN, 0.0750778, "- N/A -   "
0.17, 13.09217, 0.00032488, NaN, NaN, NaN, 0.07385705, "- N/A -   "
0.18, 13.3281, 0.000344317, NaN, NaN, NaN, 0.07385705, "- N/A -   "
0.19, 13.6819, 3.637545E-4, NaN, NaN, NaN, 0.07263627, "- N/A -   "
0.2, 14.0357, 3.80415E-4, NaN, NaN, NaN, 0.07141549, "- N/A -   "
0.21, 14.3896, 0.000402629, NaN, NaN, NaN, 0.0701947, "- N/A -   "
0.22, 14.7434, 0.000422066, NaN, NaN, NaN, 0.0689739, "- N/A -   "
0.23, 14.9793, 0.000441504, NaN, NaN, NaN, 0.06653238, "- N/A -   "
0.24, 15.2152, 4.609408E-4, NaN, NaN, NaN, 0.0653116, "- N/A -   "
0.25, 15.687, 0.000480378, NaN, NaN, NaN, 0.0640908, "- N/A -   "
0.26, 16.0409, 0.000502592, NaN, NaN, NaN, 0.06287005, "- N/A -   "
0.27, 16.27675, 0.000522029, NaN, NaN, NaN, 0.0604285, "- N/A -   "
0.28, 16.6306, 5.442434E-4, NaN, NaN, NaN, 0.0579869, "- N/A -   "
0.29, 16.86649, 5.636806E-4, NaN, NaN, NaN, 0.05676616, "- N/A -   "
0.3, 17.4562, 5.858946E-4, NaN, NaN, NaN, 0.0543246, "- N/A -   "
0.31, 17.6921, 0.000608109, NaN, NaN, NaN, 0.05188305, "- N/A -   "
0.32, 18.046, 0.000630323, NaN, NaN, NaN, 0.05066227, "- N/A -   "
0.33, 18.3998, 6.497599E-4, NaN, NaN, NaN, 0.0494415, "- N/A -   "
0.34, 18.6357, 6.691972E-4, NaN, NaN, NaN, 0.0482207, "- N/A -   "
0.35, 18.9895, 0.000688634, NaN, NaN, NaN, 0.04699994, "- N/A -   "
0.36, 19.3434, 7.080717E-4, NaN, NaN, NaN, 0.0445584, "- N/A -   "
0.37, 19.57928, 7.27509E-4, NaN, NaN, NaN, 0.0433376, "- N/A -   "
0.38, 19.9331, 0.000746946, NaN, NaN, NaN, 0.04211683, "- N/A -   "
0.39, 20.169, 0.000763607, NaN, NaN, NaN, 0.04211683, "- N/A -   "
0.4, 20.52286, 0.000783044, NaN, NaN, NaN, 0.04089605, "- N/A -   "
0.41, 20.8767, 7.997045E-4, NaN, NaN, NaN, 0.04089605, "- N/A -   "
0.42, 21.1126, 0.000821919, NaN, NaN, NaN, 0.0396753, "- N/A -   "
0.43, 21.46644, 8.38579E-4, NaN, NaN, NaN, 0.0396753, "- N/A -   "
0.44, 21.7023, 8.524628E-4, NaN, NaN, NaN, 0.0396753, "- N/A -   "
0.45, 22.0562, 8.691233E-4, NaN, NaN, NaN, 0.0396753, "- N/A -   "
0.46, 22.29207, 8.885606E-4, NaN, NaN, NaN, 0.0396753, "- N/A -   "
0.47, 22.528, 9.052211E-4, NaN, NaN, NaN, 0.0384545, "- N/A -   "
0.48, 22.9998, 9.274351E-4, NaN, NaN, NaN, 0.0372337, "- N/A -   "
0.54, 24.8869, 0.00103851, NaN, NaN, NaN, 0.0323506, "- N/A -   "
0.6, 26.6561, 0.00113847, NaN, NaN, NaN, 0.03112983, "- N/A -   "
0.66, 28.42534, 0.001241208, NaN, NaN, NaN, 0.03112983, "- N/A -   "
0.72, 29.84071, 0.00132729, NaN, NaN, NaN, 0.03601294, "- N/A -   "
0.78, 31.374, 0.00141614, NaN, NaN, NaN, 0.04089605, "- N/A -   "
0.84, 33.1432, 0.001510553, NaN, NaN, NaN, 0.0445584, "- N/A -   "
0.9, 35.0304, 0.00161607, NaN, NaN, NaN, 0.04089605, "- N/A -   "
0.96, 36.6817, 0.0017077, NaN, NaN, NaN, 0.0445584, "- N/A -   "
1.02, 38.68677, 0.001816, NaN, NaN, NaN, 0.04089605, "- N/A -   "
1.08, 41.04572, 0.00193817, NaN, NaN, NaN, 0.0323506, "- N/A -   "
1.14, 43.0508, 0.00204924, NaN, NaN, NaN, 0.0274675, "- N/A -   "
1.2, 44.93799, 0.00214643, NaN, NaN, NaN, 0.0286883, "- N/A -   "
1.26, 46.7072, 0.00223529, NaN, NaN, NaN, 0.0323506, "- N/A -   "
1.32, 48.3585, 0.00232414, NaN, NaN, NaN, 0.0372337, "- N/A -   "
1.38, 50.2456, 0.00241855, NaN, NaN, NaN, 0.0396753, "- N/A -   "
1.44, 52.36868, 0.00252684, NaN, NaN, NaN, 0.03601294, "- N/A -   "
1.5, 54.13789, 0.00261848, NaN, NaN, NaN, 0.0396753, "- N/A -   "
1.56, 55.7892, 0.00271011, NaN, NaN, NaN, 0.0445584, "- N/A -   "
1.62, 57.91221, 0.00281007, NaN, NaN, NaN, 0.0445584, "- N/A -   "
1.68, 60.27116, 0.00292392, NaN, NaN, NaN, 0.0384545, "- N/A -   "
1.74, 62.5122, 0.00303499, NaN, NaN, NaN, 0.0335714, "- N/A -   "
1.8, 64.3993, 0.00313495, NaN, NaN, NaN, 0.0335714, "- N/A -   "
1.86, 66.2865, 0.00322936, NaN, NaN, NaN, 0.03601294, "- N/A -   "
1.92, 68.29159, 0.00332655, NaN, NaN, NaN, 0.03601294, "- N/A -   "
1.98, 70.41464, 0.00342929, NaN, NaN, NaN, 0.0347922, "- N/A -   "
2.04, 72.5377, 0.00353203, NaN, NaN, NaN, 0.0335714, "- N/A -   "
2.1, 74.5428, 0.00362921, NaN, NaN, NaN, 0.0347922, "- N/A -   "
2.16, 76.19407, 0.003715294, NaN, NaN, NaN, 0.04089605, "- N/A -   "
2.22, 78.31712, 0.003815257, NaN, NaN, NaN, 0.04089605, "- N/A -   "
2.28, 80.55813, 0.00392355, NaN, NaN, NaN, 0.0384545, "- N/A -   "
2.34, 82.68118, 0.00402074, NaN, NaN, NaN, 0.0384545, "- N/A -   "
2.4, 84.80424, 0.004123477, NaN, NaN, NaN, 0.0372337, "- N/A -   "
2.46, 86.92729, 0.00422344, NaN, NaN, NaN, 0.0372337, "- N/A -   "
2.52, 89.16828, 0.00432896, NaN, NaN, NaN, 0.0347922, "- N/A -   "
2.58, 91.40929, 0.00443725, NaN, NaN, NaN, 0.0323506, "- N/A -   "
2.64, 93.53234, 0.00453721, NaN, NaN, NaN, 0.03112983, "- N/A -   "
2.7, 95.7733, 0.004634399, NaN, NaN, NaN, 0.0323506, "- N/A -   "
2.76, 97.8964, 0.004734362, NaN, NaN, NaN, 0.0335714, "- N/A -   "
2.82, 99.9015, 0.004834325, NaN, NaN, NaN, 0.0323506, "- N/A -   "
2.88, 101.789, 0.004920405, NaN, NaN, NaN, 0.0384545, "- N/A -   "
2.94, 103.794, 0.005012037, NaN, NaN, NaN, 0.04211683, "- N/A -   "
3, 105.799, 0.005106447, NaN, NaN, NaN, 0.0445584, "- N/A -   "
3.06, 108.04, 0.005209187, NaN, NaN, NaN, 0.0433376, "- N/A -   "
3.12, 110.517, 0.00532581, NaN, NaN, NaN, 0.0372337, "- N/A -   "
3.18, 112.876, 0.005431327, NaN, NaN, NaN, 0.0335714, "- N/A -   "
3.24, 114.999, 0.00552851, NaN, NaN, NaN, 0.0347922, "- N/A -   "
3.3, 117.122, 0.0056257, NaN, NaN, NaN, 0.03601294, "- N/A -   "
3.36, 119.481, 0.00573677, NaN, NaN, NaN, 0.0323506, "- N/A -   "
3.42, 121.722, 0.005836732, NaN, NaN, NaN, 0.03112983, "- N/A -   "
3.48, 123.7269, 0.005931142, NaN, NaN, NaN, 0.0335714, "- N/A -   "
3.54, 125.614, 0.006019998, NaN, NaN, NaN, 0.0384545, "- N/A -   "
3.6, 127.619, 0.006108854, NaN, NaN, NaN, 0.0433376, "- N/A -   "
3.66, 129.506, 0.00620604, NaN, NaN, NaN, 0.04699994, "- N/A -   "
3.72, 132.219, 0.00631711, NaN, NaN, NaN, 0.04211683, "- N/A -   "
3.78, 134.578, 0.006425404, NaN, NaN, NaN, 0.0384545, "- N/A -   "
3.84, 136.937, 0.006533697, NaN, NaN, NaN, 0.0347922, "- N/A -   "
3.9, 139.296, 0.006639214, NaN, NaN, NaN, 0.03112983, "- N/A -   "
3.96, 141.6549, 0.00674751, NaN, NaN, NaN, 0.0274675, "- N/A -   "
4.02, 143.778, 0.00684747, NaN, NaN, NaN, 0.0274675, "- N/A -   "
4.08, 145.783, 0.006936326, NaN, NaN, NaN, 0.0323506, "- N/A -   "
4.14, 147.552, 0.00702518, NaN, NaN, NaN, 0.0384545, "- N/A -   "
4.2, 149.439, 0.00711404, NaN, NaN, NaN, 0.04211683, "- N/A -   "
4.26, 151.5625, 0.00721122, NaN, NaN, NaN, 0.0445584, "- N/A -   "
4.32, 153.686, 0.007308411, NaN, NaN, NaN, 0.0445584, "- N/A -   "
4.38, 155.927, 0.00740837, NaN, NaN, NaN, 0.04577916, "- N/A -   "
4.44, 158.521, 0.00751944, NaN, NaN, NaN, 0.04089605, "- N/A -   "
4.5, 161.116, 0.007636067, NaN, NaN, NaN, 0.0323506, "- N/A -   "
4.56, 163.357, 0.00774436, NaN, NaN, NaN, 0.0286883, "- N/A -   "
4.62, 165.362, 0.007841547, NaN, NaN, NaN, 0.0299091, "- N/A -   "
4.68, 167.367, 0.007933181, NaN, NaN, NaN, 0.0347922, "- N/A -   "
4.74, 169.255, 0.008024813, NaN, NaN, NaN, 0.0372337, "- N/A -   "
4.8, 171.378, 0.00811645, NaN, NaN, NaN, 0.04089605, "- N/A -   "
4.86, 173.619, 0.008219185, NaN, NaN, NaN, 0.0396753, "- N/A -   "
4.92, 175.742, 0.008316372, NaN, NaN, NaN, 0.04089605, "- N/A -   "
4.98, 177.747, 0.008410782, NaN, NaN, NaN, 0.0433376, "- N/A -   "
5.04, 179.988, 0.008510745, NaN, NaN, NaN, 0.0445584, "- N/A -   "
5.1, 182.3468, 0.008624592, NaN, NaN, NaN, 0.0372337, "- N/A -   "
5.16, 185.06, 0.008738438, NaN, NaN, NaN, 0.03112983, "- N/A -   "
5.22, 187.301, 0.008843956, NaN, NaN, NaN, 0.0286883, "- N/A -   "
5.28, 189.188, 0.008938364, NaN, NaN, NaN, 0.03112983, "- N/A -   "
5.34, 191.193, 0.00903, NaN, NaN, NaN, 0.0347922, "- N/A -   "
5.4, 193.5518, 0.009132737, NaN, NaN, NaN, 0.0335714, "- N/A -   "
5.46, 195.675, 0.009235476, NaN, NaN, NaN, 0.0323506, "- N/A -   "
5.52, 197.444, 0.009321556, NaN, NaN, NaN, 0.0384545, "- N/A -   "
5.58, 199.449, 0.009413188, NaN, NaN, NaN, 0.04211683, "- N/A -   "
5.64, 201.572, 0.009513152, NaN, NaN, NaN, 0.04211683, "- N/A -   "
5.7, 203.813, 0.009615892, NaN, NaN, NaN, 0.04089605, "- N/A -   "
5.76, 206.054, 0.00971863, NaN, NaN, NaN, 0.0396753, "- N/A -   "
5.82, 208.4132, 0.009826925, NaN, NaN, NaN, 0.0372337, "- N/A -   "
5.88, 210.536, 0.009926888, NaN, NaN, NaN, 0.03601294, "- N/A -   "
5.94, 212.777, 0.0100296, NaN, NaN, NaN, 0.0347922, "- N/A -   "
6, 215.136, 0.0101351, NaN, NaN, NaN, 0.0335714, "- N/A -   "
6.06, 217.141, 0.01023233, NaN, NaN, NaN, 0.0347922, "- N/A -   "
6.12, 219.1464, 0.0103295, NaN, NaN, NaN, 0.0347922, "- N/A -   "
6.18, 221.269, 0.0104323, NaN, NaN, NaN, 0.0347922, "- N/A -   "
6.24, 223.3925, 0.0105322, NaN, NaN, NaN, 0.0335714, "- N/A -   "
6.3, 225.398, 0.0106211, NaN, NaN, NaN, 0.0384545, "- N/A -   "
6.36, 227.285, 0.0107155, NaN, NaN, NaN, 0.04089605, "- N/A -   "
6.42, 229.29, 0.0108043, NaN, NaN, NaN, 0.04577916, "- N/A -   "
6.48, 231.767, 0.0109154, NaN, NaN, NaN, 0.04089605, "- N/A -   "
6.54, 234.126, 0.0110293, NaN, NaN, NaN, 0.0347922, "- N/A -   "
6.6, 236.367, 0.0111348, NaN, NaN, NaN, 0.0323506, "- N/A -   "
6.66, 238.608, 0.0112347, NaN, NaN, NaN, 0.0323506, "- N/A -   "
6.72, 240.849, 0.0113347, NaN, NaN, NaN, 0.0323506, "- N/A -   "
6.78, 243.089, 0.0114458, NaN, NaN, NaN, 0.0286883, "- N/A -   "
6.84, 245.328, 0.011543, NaN, NaN, NaN, 0.0286883, "- N/A -   "
6.9, 247.095, 0.0116318, NaN, NaN, NaN, 0.0335714, "- N/A -   "
6.96, 248.745, 0.0117151, NaN, NaN, NaN, 0.04211683, "- N/A -   "
7.02, 250.866, 0.0118067, NaN, NaN, NaN, 0.0445584, "- N/A -   "
7.08, 252.8687, 0.0119012, NaN, NaN, NaN, 0.04699994, "- N/A -   "
7.14, 255.343, 0.012015, NaN, NaN, NaN, 0.04089605, "- N/A -   "
7.2, 257.6996, 0.0121233, NaN, NaN, NaN, 0.0372337, "- N/A -   "
7.26, 260.0561, 0.0122316, NaN, NaN, NaN, 0.0347922, "- N/A -   "
7.32, 262.4126, 0.0123343, NaN, NaN, NaN, 0.0323506, "- N/A -   "
7.38, 264.769, 0.0124426, NaN, NaN, NaN, 0.0286883, "- N/A -   "
7.44, 266.89, 0.0125426, NaN, NaN, NaN, 0.0286883, "- N/A -   "
7.5, 269.1287, 0.0126398, NaN, NaN, NaN, 0.0299091, "- N/A -   "
7.56, 270.8961, 0.0127286, NaN, NaN, NaN, 0.0347922, "- N/A -   "
7.62, 272.7813, 0.01281471, NaN, NaN, NaN, 0.04089605, "- N/A -   "
7.68, 274.9022, 0.0129147, NaN, NaN, NaN, 0.04211683, "- N/A -   "
7.74, 276.9052, 0.0130063, NaN, NaN, NaN, 0.0445584, "- N/A -   "
7.8, 279.0261, 0.0131007, NaN, NaN, NaN, 0.04699994, "- N/A -   "
7.86, 281.736, 0.0132146, NaN, NaN, NaN, 0.04089605, "- N/A -   "
7.92, 284.328, 0.0133367, NaN, NaN, NaN, 0.0323506, "- N/A -   "
7.98, 286.9204, 0.013445, NaN, NaN, NaN, 0.0274675, "- N/A -   "
8.04, 288.9235, 0.0135422, NaN, NaN, NaN, 0.0286883, "- N/A -   "
8.1, 291.162, 0.0136394, NaN, NaN, NaN, 0.03112983, "- N/A -   "
8.16, 293.283, 0.0137338, NaN, NaN, NaN, 0.0335714, "- N/A -   "
8.22, 295.404, 0.0138338, NaN, NaN, NaN, 0.0335714, "- N/A -   "
8.28, 297.407, 0.0139254, NaN, NaN, NaN, 0.0384545, "- N/A -   "
8.34, 299.41, 0.0140115, NaN, NaN, NaN, 0.0433376, "- N/A -   "
8.4, 301.413, 0.0141059, NaN, NaN, NaN, 0.04577916, "- N/A -   "
8.46, 303.77, 0.0142086, NaN, NaN, NaN, 0.0445584, "- N/A -   "
8.52, 306.362, 0.0143225, NaN, NaN, NaN, 0.0384545, "- N/A -   "
8.58, 308.8361, 0.0144308, NaN, NaN, NaN, 0.0347922, "- N/A -   "
8.64, 311.1926, 0.0145363, NaN, NaN, NaN, 0.0323506, "- N/A -   "
8.7, 313.313, 0.0146335, NaN, NaN, NaN, 0.0335714, "- N/A -   "
8.76, 315.317, 0.0147279, NaN, NaN, NaN, 0.0372337, "- N/A -   "
8.82, 317.791, 0.0148362, NaN, NaN, NaN, 0.0323506, "- N/A -   "
8.88, 320.03, 0.0149361, NaN, NaN, NaN, 0.0335714, "- N/A -   "
8.91, 321.208, 0.0149834, NaN, NaN, NaN, 0.0335714, "- N/A -   "
8.92, 321.443, 0.015, NaN, NaN, NaN, 0.0347922, "- N/A -   "
8.93, 321.797, 0.0150139, NaN, NaN, NaN, 0.0347922, "- N/A -   "
9.04, 325.567, 0.0151833, NaN, NaN, NaN, 0.04211683, "- N/A -   "
9.15, 329.809, 0.0153749, NaN, NaN, NaN, 0.0372337, "- N/A -   "
9.26, 333.697, 0.0155526, NaN, NaN, NaN, 0.0396753, "- N/A -   "
9.37, 338.175, 0.0157442, NaN, NaN, NaN, 0.03601294, "- N/A -   "
9.48, 342.299, 0.015933, NaN, NaN, NaN, 0.0347922, "- N/A -   "
9.59, 346.7761, 0.0161246, NaN, NaN, NaN, 0.0299091, "- N/A -   "
9.7, 350.311, 0.0162884, NaN, NaN, NaN, 0.0384545, "- N/A -   "
9.81, 354.199, 0.0164606, NaN, NaN, NaN, 0.0445584, "- N/A -   "
9.92, 358.5587, 0.0166466, NaN, NaN, NaN, 0.04211683, "- N/A -   "
10.03, 363.272, 0.01684933, NaN, NaN, NaN, 0.0347922, "- N/A -   "
10.14, 367.5135, 0.0170326, NaN, NaN, NaN, 0.0335714, "- N/A -   "
10.25, 371.873, 0.01722419, NaN, NaN, NaN, 0.0299091, "- N/A -   "
10.36, 375.526, 0.01738802, NaN, NaN, NaN, 0.0396753, "- N/A -   "
10.47, 379.296, 0.0175546, NaN, NaN, NaN, 0.04699994, "- N/A -   "
10.58, 384.009, 0.0177546, NaN, NaN, NaN, 0.0384545, "- N/A -   "
10.69, 388.604, 0.01794337, NaN, NaN, NaN, 0.03601294, "- N/A -   "
10.8, 393.1996, 0.0181405, NaN, NaN, NaN, 0.0299091, "- N/A -   "
10.91, 397.3235, 0.0183238, NaN, NaN, NaN, 0.0299091, "- N/A -   "
11.02, 401.0939, 0.0184848, NaN, NaN, NaN, 0.0396753, "- N/A -   "
11.13, 405.1, 0.018657, NaN, NaN, NaN, 0.0445584, "- N/A -   "
11.24, 409.5774, 0.0188486, NaN, NaN, NaN, 0.04089605, "- N/A -   "
11.35, 414.408, 0.01905407, NaN, NaN, NaN, 0.03112983, "- N/A -   "
11.46, 418.886, 0.0192429, NaN, NaN, NaN, 0.0286883, "- N/A -   "
11.57, 422.7739, 0.0194123, NaN, NaN, NaN, 0.0347922, "- N/A -   "
11.68, 427.133, 0.01959, NaN, NaN, NaN, 0.0372337, "- N/A -   "
11.79, 431.022, 0.0197594, NaN, NaN, NaN, 0.0433376, "- N/A -   "
11.9, 435.853, 0.01995374, NaN, NaN, NaN, 0.0384545, "- N/A -   "
12.01, 440.683, 0.02015922, NaN, NaN, NaN, 0.0299091, "- N/A -   "
12.12, 444.572, 0.0203286, NaN, NaN, NaN, 0.03601294, "- N/A -   "
12.23, 449.2848, 0.0205174, NaN, NaN, NaN, 0.0323506, "- N/A -   "
12.34, 453.4087, 0.0206924, NaN, NaN, NaN, 0.03601294, "- N/A -   "
12.45, 457.415, 0.02086729, NaN, NaN, NaN, 0.0396753, "- N/A -   "
12.56, 461.774, 0.0210506, NaN, NaN, NaN, 0.0396753, "- N/A -   "
12.67, 466.605, 0.0212422, NaN, NaN, NaN, 0.0372337, "- N/A -   "
12.78, 471.0826, 0.021431, NaN, NaN, NaN, 0.0347922, "- N/A -   "
12.89, 475.324, 0.021617, NaN, NaN, NaN, 0.0335714, "- N/A -   "
13, 479.566, 0.0217947, NaN, NaN, NaN, 0.03601294, "- N/A -   "
13.11, 483.926, 0.0219724, NaN, NaN, NaN, 0.0384545, "- N/A -   "
13.22, 488.05, 0.0221446, NaN, NaN, NaN, 0.0445584, "- N/A -   "
13.33, 492.7626, 0.0223362, NaN, NaN, NaN, 0.04089605, "- N/A -   "
13.44, 497.593, 0.0225361, NaN, NaN, NaN, 0.0335714, "- N/A -   "
13.55, 501.8352, 0.0227111, NaN, NaN, NaN, 0.03601294, "- N/A -   "
13.66, 506.6661, 0.0229054, NaN, NaN, NaN, 0.03112983, "- N/A -   "
13.77, 510.672, 0.02307481, NaN, NaN, NaN, 0.0372337, "- N/A -   "
13.88, 514.4462, 0.0232331, NaN, NaN, NaN, 0.0494415, "- N/A -   "
13.99, 519.414, 0.0234358, NaN, NaN, NaN, 0.0396753, "- N/A -   "
14.1, 524.382, 0.0236329, NaN, NaN, NaN, 0.0335714, "- N/A -   "
14.21, 529.1131, 0.0238273, NaN, NaN, NaN, 0.0286883, "- N/A -   "
14.32, 533.371, 0.02400502, NaN, NaN, NaN, 0.0323506, "- N/A -   "
14.43, 537.1562, 0.0241633, NaN, NaN, NaN, 0.04211683, "- N/A -   "
14.54, 541.6509, 0.0243438, NaN, NaN, NaN, 0.0433376, "- N/A -   "
14.65, 546.619, 0.0245409, NaN, NaN, NaN, 0.0372337, "- N/A -   "
14.76, 551.5864, 0.0247381, NaN, NaN, NaN, 0.03112983, "- N/A -   "
14.87, 555.845, 0.0249158, NaN, NaN, NaN, 0.0335714, "- N/A -   "
14.98, 560.221, 0.025088, NaN, NaN, NaN, 0.0384545, "- N/A -   "
15.09, 564.8339, 0.0252823, NaN, NaN, NaN, 0.0335714, "- N/A -   "
15.2, 568.9737, 0.0254489, NaN, NaN, NaN, 0.04089605, "- N/A -   "
15.31, 573.5867, 0.025635, NaN, NaN, NaN, 0.04089605, "- N/A -   "
15.42, 579.0276, 0.0258405, NaN, NaN, NaN, 0.0299091, "- N/A -   "
15.53, 582.9309, 0.02600706, NaN, NaN, NaN, 0.0372337, "- N/A -   "
15.64, 587.662, 0.0261931, NaN, NaN, NaN, 0.03601294, "- N/A -   "
15.75, 592.3933, 0.0263791, NaN, NaN, NaN, 0.0347922, "- N/A -   "
15.86, 596.533, 0.02654297, NaN, NaN, NaN, 0.0433376, "- N/A -   "
15.97, 601.501, 0.0267373, NaN, NaN, NaN, 0.0384545, "- N/A -   "
16.08, 606.232, 0.0269262, NaN, NaN, NaN, 0.03601294, "- N/A -   "
16.19, 610.8451, 0.0271122, NaN, NaN, NaN, 0.0347922, "- N/A -   "
16.3, 615.576, 0.0272982, NaN, NaN, NaN, 0.0335714, "- N/A -   "
[...]
27.18, 1090.156, 0.0454332, NaN, NaN, NaN, 0.0347922, "- N/A -   "
27.31, 1096.48, 0.04566368, NaN, NaN, NaN, 0.0274675, "- N/A -   "
27.44, 1101.37, 0.0458525, NaN, NaN, NaN, 0.04089605, "- N/A -   "
27.57, 1106.97, 0.04605798, NaN, NaN, NaN, 0.0445584, "- N/A -   "
27.7, 1113.65, 0.0463023, NaN, NaN, NaN, 0.0323506, "- N/A -   "
27.83, 1118.78, 0.0464995, NaN, NaN, NaN, 0.04089605, "- N/A -   "
27.96, 1125.22, 0.04673273, NaN, NaN, NaN, 0.0335714, "- N/A -   "
28.09, 1130.344, 0.04692988, NaN, NaN, NaN, 0.04211683, "- N/A -   "
28.22, 1136.19, 0.0471492, NaN, NaN, NaN, 0.04089605, "- N/A -   "
28.35, 1142.51, 0.04737694, NaN, NaN, NaN, 0.03601294, "- N/A -   "
28.48, 1148.71, 0.04760741, NaN, NaN, NaN, 0.0299091, "- N/A -   "
28.61, 1154.31, 0.04781844, NaN, NaN, NaN, 0.0323506, "- N/A -   "
28.74, 1159.92, 0.0480295, NaN, NaN, NaN, 0.03601294, "- N/A -   "
28.87, 1164.927, 0.0482183, NaN, NaN, NaN, 0.04699994, "- N/A -   "
29, 1171.72, 0.0484599, NaN, NaN, NaN, 0.03601294, "- N/A -   "
29.13, 1177.81, 0.0486876, NaN, NaN, NaN, 0.03112983, "- N/A -   "
29.26, 1183.411, 0.048893, NaN, NaN, NaN, 0.03601294, "- N/A -   "
29.39, 1189.016, 0.04910686, NaN, NaN, NaN, 0.0372337, "- N/A -   "
29.52, 1194.62, 0.04931789, NaN, NaN, NaN, 0.04089605, "- N/A -   "
29.65, 1200.7, 0.04953725, NaN, NaN, NaN, 0.0384545, "- N/A -   "
29.78, 1206.67, 0.0497566, NaN, NaN, NaN, 0.0372337, "- N/A -   "
29.91, 1212.99, 0.0499871, NaN, NaN, NaN, 0.03112983, "- N/A -   "
30.04, 1218.59, 0.0502009, NaN, NaN, NaN, 0.0323506, "- N/A -   "
30.17, 1223.96, 0.0504064, NaN, NaN, NaN, 0.0384545, "- N/A -   "
30.3, 1229.44, 0.05060908, NaN, NaN, NaN, 0.0433376, "- N/A -   "
30.43, 1236, 0.0508423, NaN, NaN, NaN, 0.03601294, "- N/A -   "
30.56, 1241.96, 0.05106446, NaN, NaN, NaN, 0.0347922, "- N/A -   "
30.69, 1248.28, 0.0512922, NaN, NaN, NaN, 0.0286883, "- N/A -   "
30.82, 1253.29, 0.0514893, NaN, NaN, NaN, 0.0384545, "- N/A -   "
30.95, 1258.78, 0.0516892, NaN, NaN, NaN, 0.04577916, "- N/A -   "
31.08, 1264.98, 0.05191693, NaN, NaN, NaN, 0.04089605, "- N/A -   "
31.21, 1271.54, 0.05215573, NaN, NaN, NaN, 0.03112983, "- N/A -   "
31.34, 1277.62, 0.0523806, NaN, NaN, NaN, 0.0274675, "- N/A -   "
31.47, 1282.51, 0.0525695, NaN, NaN, NaN, 0.04089605, "- N/A -   "
31.6, 1288.23, 0.0527749, NaN, NaN, NaN, 0.0445584, "- N/A -   "
31.73, 1294.32, 0.05299986, NaN, NaN, NaN, 0.04211683, "- N/A -   "
31.86, 1300.87, 0.05324422, NaN, NaN, NaN, 0.0286883, "- N/A -   "
31.99, 1306.36, 0.0534441, NaN, NaN, NaN, 0.03601294, "- N/A -   "
32.12, 1312.2, 0.0536552, NaN, NaN, NaN, 0.0384545, "- N/A -   "
32.25, 1317.57, 0.0538579, NaN, NaN, NaN, 0.0445584, "- N/A -   "
32.38, 1324.01, 0.0540911, NaN, NaN, NaN, 0.0384545, "- N/A -   "
32.51, 1330.45, 0.05432715, NaN, NaN, NaN, 0.0299091, "- N/A -   "
32.64, 1335.82, 0.0545271, NaN, NaN, NaN, 0.03601294, "- N/A -   "
32.77, 1342.02, 0.0547548, NaN, NaN, NaN, 0.0323506, "- N/A -   "
32.9, 1347.38, 0.0549519, NaN, NaN, NaN, 0.0396753, "- N/A -   "
33.03, 1353.11, 0.05516295, NaN, NaN, NaN, 0.04211683, "- N/A -   "
33.16, 1359.19, 0.0553879, NaN, NaN, NaN, 0.0384545, "- N/A -   "
33.29, 1365.628, 0.05561834, NaN, NaN, NaN, 0.0323506, "- N/A -   "
33.42, 1370.99, 0.055821, NaN, NaN, NaN, 0.0384545, "- N/A -   "
33.55, 1376.96, 0.05604318, NaN, NaN, NaN, 0.03601294, "- N/A -   "
33.68, 1382.32, 0.0562459, NaN, NaN, NaN, 0.04211683, "- N/A -   "
33.81, 1388.64, 0.05647358, NaN, NaN, NaN, 0.0372337, "- N/A -   "
33.94, 1394.84, 0.05670127, NaN, NaN, NaN, 0.0323506, "- N/A -   "
34.07, 1401.17, 0.05693174, NaN, NaN, NaN, 0.0274675, "- N/A -   "
34.2, 1406.41, 0.0571317, NaN, NaN, NaN, 0.0347922, "- N/A -   "
34.33, 1411.42, 0.05731771, NaN, NaN, NaN, 0.04699994, "- N/A -   "
34.46, 1417.74, 0.0575482, NaN, NaN, NaN, 0.04089605, "- N/A -   "
34.59, 1424.06, 0.0577842, NaN, NaN, NaN, 0.0323506, "- N/A -   "
34.72, 1430.26, 0.05800912, NaN, NaN, NaN, 0.0299091, "- N/A -   "
34.85, 1435.63, 0.058209, NaN, NaN, NaN, 0.03601294, "- N/A -   "
34.98, 1440.88, 0.058409, NaN, NaN, NaN, 0.0433376, "- N/A -   "
35.11, 1446.96, 0.0586339, NaN, NaN, NaN, 0.04089605, "- N/A -   "
35.24, 1453.76, 0.0588782, NaN, NaN, NaN, 0.0274675, "- N/A -   "
35.37, 1459.48, 0.0590921, NaN, NaN, NaN, 0.0299091, "- N/A -   "
35.5, 1465.08, 0.05929753, NaN, NaN, NaN, 0.0347922, "- N/A -   "
35.63, 1470.212, 0.0594919, NaN, NaN, NaN, 0.04577916, "- N/A -   "
35.76, 1476.06, 0.0597085, NaN, NaN, NaN, 0.0445584, "- N/A -   "
35.89, 1482.972, 0.0599556, NaN, NaN, NaN, 0.0323506, "- N/A -   "
36.02, 1488.34, 0.0601583, NaN, NaN, NaN, 0.0372337, "- N/A -   "
36.15, 1494.42, 0.0603832, NaN, NaN, NaN, 0.0347922, "- N/A -   "
36.28, 1499.91, 0.06058317, NaN, NaN, NaN, 0.04089605, "- N/A -   "
36.41, 1505.63, 0.06079976, NaN, NaN, NaN, 0.04211683, "- N/A -   "
36.54, 1511.95, 0.0610302, NaN, NaN, NaN, 0.0347922, "- N/A -   "
36.67, 1517.79, 0.0612496, NaN, NaN, NaN, 0.0335714, "- N/A -   "
36.8, 1523.76, 0.061469, NaN, NaN, NaN, 0.0323506, "- N/A -   "
36.93, 1529.6, 0.0616855, NaN, NaN, NaN, 0.0323506, "- N/A -   "
37.06, 1534.608, 0.0618771, NaN, NaN, NaN, 0.0433376, "- N/A -   "
37.19, 1540.45, 0.06209095, NaN, NaN, NaN, 0.0445584, "- N/A -   "
37.32, 1547.13, 0.0623325, NaN, NaN, NaN, 0.0347922, "- N/A -   "
37.45, 1553.09, 0.0625547, NaN, NaN, NaN, 0.03112983, "- N/A -   "
37.58, 1558.82, 0.0627685, NaN, NaN, NaN, 0.0323506, "- N/A -   "
37.71, 1563.71, 0.0629573, NaN, NaN, NaN, 0.0445584, "- N/A -   "
37.84, 1569.79, 0.06317943, NaN, NaN, NaN, 0.04211683, "- N/A -   "
37.97, 1576.47, 0.06342101, NaN, NaN, NaN, 0.03112983, "- N/A -   "
38.1, 1582.31, 0.06364315, NaN, NaN, NaN, 0.0286883, "- N/A -   "
38.23, 1588.033, 0.06385141, NaN, NaN, NaN, 0.0323506, "- N/A -   "
38.36, 1593.04, 0.064043, NaN, NaN, NaN, 0.0433376, "- N/A -   "
38.49, 1598.77, 0.06425959, NaN, NaN, NaN, 0.0445584, "- N/A -   "
38.62, 1604.97, 0.06449006, NaN, NaN, NaN, 0.0384545, "- N/A -   "
38.75, 1611.53, 0.0647261, NaN, NaN, NaN, 0.0286883, "- N/A -   "
38.88, 1616.77, 0.06492601, NaN, NaN, NaN, 0.03601294, "- N/A -   "
39.01, 1622.5, 0.06513982, NaN, NaN, NaN, 0.0372337, "- N/A -   "
39.14, 1627.86, 0.0653397, NaN, NaN, NaN, 0.0445584, "- N/A -   "
39.27, 1634.66, 0.06558687, NaN, NaN, NaN, 0.03112983, "- N/A -   "
39.4, 1640.27, 0.06579791, NaN, NaN, NaN, 0.0335714, "- N/A -   "
39.53, 1646.228, 0.06602005, NaN, NaN, NaN, 0.03112983, "- N/A -   "
39.66, 1651.83, 0.06622553, NaN, NaN, NaN, 0.03601294, "- N/A -   "
39.79, 1657.2, 0.06643657, NaN, NaN, NaN, 0.0396753, "- N/A -   "
39.92, 1663.04, 0.0666504, NaN, NaN, NaN, 0.04089605, "- N/A -   "
40.05, 1668.89, 0.0668697, NaN, NaN, NaN, 0.0396753, "- N/A -   "
40.18, 1675.09, 0.06710298, NaN, NaN, NaN, 0.0335714, "- N/A -   "
40.31, 1680.69, 0.067314, NaN, NaN, NaN, 0.0347922, "- N/A -   "
40.44, 1686.18, 0.0675195, NaN, NaN, NaN, 0.0396753, "- N/A -   "
40.57, 1691.54, 0.06772775, NaN, NaN, NaN, 0.0445584, "- N/A -   "
40.7, 1698.34, 0.06797489, NaN, NaN, NaN, 0.0299091, "- N/A -   "
40.83, 1703.83, 0.06818314, NaN, NaN, NaN, 0.0335714, "- N/A -   "
40.96, 1709.67, 0.06840806, NaN, NaN, NaN, 0.03112983, "- N/A -   "
41.09, 1714.56, 0.0685997, NaN, NaN, NaN, 0.04089605, "- N/A -   "
41.22, 1720.04, 0.06880791, NaN, NaN, NaN, 0.0445584, "- N/A -   "
41.35, 1726.37, 0.0690439, NaN, NaN, NaN, 0.03601294, "- N/A -   "
41.48, 1732.21, 0.0692633, NaN, NaN, NaN, 0.0347922, "- N/A -   "
41.61, 1737.93, 0.06948544, NaN, NaN, NaN, 0.0335714, "- N/A -   "
41.74, 1742.94, 0.06968259, NaN, NaN, NaN, 0.04089605, "- N/A -   "
41.87, 1748.55, 0.06989917, NaN, NaN, NaN, 0.04089605, "- N/A -   "
42, 1754.51, 0.07012687, NaN, NaN, NaN, 0.03601294, "- N/A -   "
42.13, 1760.71, 0.0703629, NaN, NaN, NaN, 0.0274675, "- N/A -   "
42.26, 1765.957, 0.07056282, NaN, NaN, NaN, 0.0347922, "- N/A -   "
42.39, 1771.32, 0.0707739, NaN, NaN, NaN, 0.0372337, "- N/A -   "
42.52, 1776.09, 0.0709682, NaN, NaN, NaN, 0.04699994, "- N/A -   "
42.65, 1782.533, 0.0712098, NaN, NaN, NaN, 0.03601294, "- N/A -   "
42.78, 1788.14, 0.07142916, NaN, NaN, NaN, 0.0347922, "- N/A -   "
42.91, 1793.62, 0.07164575, NaN, NaN, NaN, 0.0347922, "- N/A -   "
43.04, 1799.35, 0.07186233, NaN, NaN, NaN, 0.0347922, "- N/A -   "
43.17, 1804.59, 0.0720706, NaN, NaN, NaN, 0.0396753, "- N/A -   "
43.3, 1810.2, 0.07228718, NaN, NaN, NaN, 0.0384545, "- N/A -   "
43.43, 1815.92, 0.0725121, NaN, NaN, NaN, 0.03601294, "- N/A -   "
43.56, 1821.65, 0.07273424, NaN, NaN, NaN, 0.0323506, "- N/A -   "
43.69, 1827.13, 0.07294527, NaN, NaN, NaN, 0.0347922, "- N/A -   "
43.77, 1830.59, 0.07308133, NaN, NaN, NaN, 0.0347922, "- N/A -   "