File: 2_Tensile_Data/Hamel_ForceTest_Bolt4_Test6.csv
Time, Load (lb), Position (in), AxialStrain (in), TransverseStrain (in), Auxiliary (), Control Out (V), Stress (psi)
0.0, 1.17947, 0.0, NaN, NaN, NaN, 0.09705182, "- N/A -   "
0.01, 1.76921, 2.49908e-05, NaN, NaN, NaN, 0.105597, "- N/A -   "
0.02, 2.35895, 5.27583e-05, NaN, NaN, NaN, 0.114143, "- N/A -   "
0.03, 3.18458, 8.607931E-5, NaN, NaN, NaN, 0.11048, "- N/A -   "
0.04, 3.89227, 0.0001194, NaN, NaN, NaN, 0.104376, "- N/A -   "
0.05, 4.482, 0.000147168, NaN, NaN, NaN, 0.0982726, "- N/A -   "
0.06, 4.953794, 0.000174935, NaN, NaN, NaN, 0.09338949, "- N/A -   "
0.07, 5.66148, 0.000202703, NaN, NaN, NaN, 0.08850638, "- N/A -   "
0.08, 6.13327, 0.000227694, NaN, NaN, NaN, 0.084844, "- N/A -   "
0.09, 6.60506, 0.000249908, NaN, NaN, NaN, 0.08240249, "- N/A -   "
0.1, 7.07685, 0.000274898, NaN, NaN, NaN, 0.07874016, "- N/A -   "
0.11, 7.548638, 2.998892E-4, NaN, NaN, NaN, 0.0762986, "- N/A -   "
0.12, 8.020428, 3.221032E-4, NaN, NaN, NaN, 0.07263627, "- N/A -   "
0.13, 8.492218, 0.000347094, NaN, NaN, NaN, 0.0689739, "- N/A -   "
0.14, 8.964007, 0.000372085, NaN, NaN, NaN, 0.06653238, "- N/A -   "
0.15, 9.435798, 0.000397076, NaN, NaN, NaN, 0.06287005, "- N/A -   "
0.16, 10.0255, 0.000422066, NaN, NaN, NaN, 0.0592077, "- N/A -   "
0.17, 10.3794, 4.442803E-4, NaN, NaN, NaN, 0.0555454, "- N/A -   "
0.18, 10.8512, 4.664943E-4, NaN, NaN, NaN, 0.0531038, "- N/A -   "
0.19, 11.323, 4.887083E-4, NaN, NaN, NaN, 0.05066227, "- N/A -   "
0.2, 11.6768, 0.000510922, NaN, NaN, NaN, 0.0482207, "- N/A -   "
0.21, 12.0306, 0.00053036, NaN, NaN, NaN, 0.04699994, "- N/A -   "
0.22, 12.2665, 0.000549797, NaN, NaN, NaN, 0.04577916, "- N/A -   "
0.23, 12.7383, 0.000569234, NaN, NaN, NaN, 0.04577916, "- N/A -   "
0.24, 12.9742, 5.858946E-4, NaN, NaN, NaN, 0.0445584, "- N/A -   "
0.25, 13.3281, 6.053319E-4, NaN, NaN, NaN, 0.0433376, "- N/A -   "
0.26, 13.7999, 0.000624769, NaN, NaN, NaN, 0.0433376, "- N/A -   "
0.27, 14.0357, 6.442064E-4, NaN, NaN, NaN, 0.04211683, "- N/A -   "
0.28, 14.5075, 6.608669E-4, NaN, NaN, NaN, 0.04089605, "- N/A -   "
0.29, 14.7434, 0.000677527, NaN, NaN, NaN, 0.04089605, "- N/A -   "
0.3, 15.0973, 0.000694188, NaN, NaN, NaN, 0.04089605, "- N/A -   "
0.31, 15.4511, 7.136252E-4, NaN, NaN, NaN, 0.0396753, "- N/A -   "
0.32, 15.805, 0.000733062, NaN, NaN, NaN, 0.0396753, "- N/A -   "
0.33, 16.1588, 7.49723E-4, NaN, NaN, NaN, 0.0384545, "- N/A -   "
0.34, 16.3947, 7.691603E-4, NaN, NaN, NaN, 0.0384545, "- N/A -   "
0.35, 16.74854, 7.885975E-4, NaN, NaN, NaN, 0.0372337, "- N/A -   "
0.36, 17.1024, 8.080348E-4, NaN, NaN, NaN, 0.03601294, "- N/A -   "
0.37, 17.5742, 8.27472E-4, NaN, NaN, NaN, 0.0335714, "- N/A -   "
0.38, 17.8101, 8.469093E-4, NaN, NaN, NaN, 0.0335714, "- N/A -   "
0.39, 18.2819, 8.663466E-4, NaN, NaN, NaN, 0.03112983, "- N/A -   "
0.4, 18.5178, 8.857838E-4, NaN, NaN, NaN, 0.0299091, "- N/A -   "
0.41, 18.8716, 0.000902444, NaN, NaN, NaN, 0.0299091, "- N/A -   "
0.42, 19.1075, 9.218816E-4, NaN, NaN, NaN, 0.0299091, "- N/A -   "
0.43, 19.4613, 9.385421E-4, NaN, NaN, NaN, 0.0286883, "- N/A -   "
0.44, 19.6972, 9.552026E-4, NaN, NaN, NaN, 0.0299091, "- N/A -   "
0.45, 20.05107, 0.000971863, NaN, NaN, NaN, 0.0299091, "- N/A -   "
0.46, 20.287, 9.857469E-4, NaN, NaN, NaN, 0.0299091, "- N/A -   "
0.47, 20.6408, 9.996307E-4, NaN, NaN, NaN, 0.03112983, "- N/A -   "
0.65, 25.0049, 0.00126898, NaN, NaN, NaN, 0.04577916, "- N/A -   "
0.83, 30.4304, 0.00158553, NaN, NaN, NaN, 0.0372337, "- N/A -   "
1.01, 35.3842, 0.00191041, NaN, NaN, NaN, 0.0262467, "- N/A -   "
1.19, 39.5124, 0.002182527, NaN, NaN, NaN, 0.0396753, "- N/A -   "
1.37, 44.1124, 0.00246576, NaN, NaN, NaN, 0.04577916, "- N/A -   "
1.55, 49.5379, 0.002798966, NaN, NaN, NaN, 0.03112983, "- N/A -   "
1.73, 54.2558, 0.0030933, NaN, NaN, NaN, 0.0335714, "- N/A -   "
1.91, 58.7378, 0.003382084, NaN, NaN, NaN, 0.0384545, "- N/A -   "
2.09, 63.6916, 0.00368475, NaN, NaN, NaN, 0.0384545, "- N/A -   "
2.27, 68.40953, 0.003995746, NaN, NaN, NaN, 0.0335714, "- N/A -   "
2.45, 73.00948, 0.004298412, NaN, NaN, NaN, 0.0323506, "- N/A -   "
2.63, 77.13765, 0.004576087, NaN, NaN, NaN, 0.04211683, "- N/A -   "
2.81, 81.97349, 0.004884307, NaN, NaN, NaN, 0.0384545, "- N/A -   "
2.99, 86.57345, 0.005186972, NaN, NaN, NaN, 0.03601294, "- N/A -   "
3.17, 91.2913, 0.00549519, NaN, NaN, NaN, 0.0323506, "- N/A -   "
3.35, 95.5374, 0.00577842, NaN, NaN, NaN, 0.0396753, "- N/A -   "
3.53, 100.491, 0.00608109, NaN, NaN, NaN, 0.0396753, "- N/A -   "
3.71, 105.445, 0.00639486, NaN, NaN, NaN, 0.0335714, "- N/A -   "
3.89, 110.163, 0.006694749, NaN, NaN, NaN, 0.0335714, "- N/A -   "
4.07, 114.409, 0.006964094, NaN, NaN, NaN, 0.04699994, "- N/A -   "
4.25, 119.717, 0.007288974, NaN, NaN, NaN, 0.03601294, "- N/A -   "
4.43, 124.788, 0.00760275, NaN, NaN, NaN, 0.0299091, "- N/A -   "
4.61, 129.27, 0.007880422, NaN, NaN, NaN, 0.0396753, "- N/A -   "
4.79, 134.106, 0.008169204, NaN, NaN, NaN, 0.0445584, "- N/A -   "
4.97, 139.768, 0.008502414, NaN, NaN, NaN, 0.0299091, "- N/A -   "
5.15, 144.368, 0.008793973, NaN, NaN, NaN, 0.0335714, "- N/A -   "
5.33, 149.204, 0.009079979, NaN, NaN, NaN, 0.0396753, "- N/A -   "
5.51, 154.393, 0.009379867, NaN, NaN, NaN, 0.04089605, "- N/A -   "
5.69, 159.701, 0.00969364, NaN, NaN, NaN, 0.0335714, "- N/A -   "
5.87, 165.126, 0.009996306, NaN, NaN, NaN, 0.0323506, "- N/A -   "
6.05, 170.08, 0.0102795, NaN, NaN, NaN, 0.0396753, "- N/A -   "
6.23, 175.624, 0.0105905, NaN, NaN, NaN, 0.03601294, "- N/A -   "
6.41, 180.931, 0.0108932, NaN, NaN, NaN, 0.0335714, "- N/A -   "
6.59, 186.475, 0.0111959, NaN, NaN, NaN, 0.0335714, "- N/A -   "
6.77, 191.547, 0.0114763, NaN, NaN, NaN, 0.04089605, "- N/A -   "
6.95, 197.444, 0.0117845, NaN, NaN, NaN, 0.0384545, "- N/A -   "
7.13, 203.106, 0.01209, NaN, NaN, NaN, 0.0347922, "- N/A -   "
7.31, 209.003, 0.0123982, NaN, NaN, NaN, 0.03112983, "- N/A -   "
7.49, 214.1926, 0.0126675, NaN, NaN, NaN, 0.04577916, "- N/A -   "
7.67, 220.68, 0.0129952, NaN, NaN, NaN, 0.0335714, "- N/A -   "
7.85, 226.813, 0.0133062, NaN, NaN, NaN, 0.0286883, "- N/A -   "
8.03, 232.003, 0.0135811, NaN, NaN, NaN, 0.0384545, "- N/A -   "
8.21, 237.9, 0.0138727, NaN, NaN, NaN, 0.0445584, "- N/A -   "
8.39, 244.857, 0.0142086, NaN, NaN, NaN, 0.0286883, "- N/A -   "
8.57, 250.63, 0.0144891, NaN, NaN, NaN, 0.03601294, "- N/A -   "
8.75, 256.403, 0.0147723, NaN, NaN, NaN, 0.0433376, "- N/A -   "
8.93, 262.8839, 0.0150833, NaN, NaN, NaN, 0.0384545, "- N/A -   "
9.11, 269.482, 0.0153971, NaN, NaN, NaN, 0.0323506, "- N/A -   "
9.29, 275.8448, 0.0156998, NaN, NaN, NaN, 0.0323506, "- N/A -   "
9.47, 281.736, 0.0159747, NaN, NaN, NaN, 0.04211683, "- N/A -   "
9.65, 288.452, 0.01628565, NaN, NaN, NaN, 0.0384545, "- N/A -   "
9.83, 295.05, 0.0165966, NaN, NaN, NaN, 0.0335714, "- N/A -   "
10.01, 301.413, 0.0168882, NaN, NaN, NaN, 0.03601294, "- N/A -   "
10.19, 307.893, 0.0171853, NaN, NaN, NaN, 0.0372337, "- N/A -   "
10.37, 314.492, 0.017488, NaN, NaN, NaN, 0.03601294, "- N/A -   "
10.55, 321.09, 0.0177879, NaN, NaN, NaN, 0.03601294, "- N/A -   "
10.73, 327.688, 0.0180933, NaN, NaN, NaN, 0.0335714, "- N/A -   "
10.91, 333.697, 0.0183654, NaN, NaN, NaN, 0.04577916, "- N/A -   "
11.09, 341.238, 0.01869587, NaN, NaN, NaN, 0.0335714, "- N/A -   "
11.27, 348.072, 0.01900409, NaN, NaN, NaN, 0.0299091, "- N/A -   "
11.45, 353.963, 0.0192734, NaN, NaN, NaN, 0.04211683, "- N/A -   "
11.63, 360.915, 0.0195733, NaN, NaN, NaN, 0.04211683, "- N/A -   "
11.81, 368.5739, 0.01990931, NaN, NaN, NaN, 0.0262467, "- N/A -   "
11.99, 375.054, 0.0201953, NaN, NaN, NaN, 0.0323506, "- N/A -   "
12.17, 381.5348, 0.0204813, NaN, NaN, NaN, 0.0384545, "- N/A -   "
12.35, 388.487, 0.02078121, NaN, NaN, NaN, 0.0396753, "- N/A -   "
12.53, 395.792, 0.0210922, NaN, NaN, NaN, 0.0347922, "- N/A -   "
12.71, 402.8613, 0.0213949, NaN, NaN, NaN, 0.0347922, "- N/A -   "
12.89, 409.342, 0.0216753, NaN, NaN, NaN, 0.04211683, "- N/A -   "
13.07, 416.765, 0.0219863, NaN, NaN, NaN, 0.0384545, "- N/A -   "
13.25, 424.07, 0.0222973, NaN, NaN, NaN, 0.0323506, "- N/A -   "
13.43, 431.14, 0.0225972, NaN, NaN, NaN, 0.0323506, "- N/A -   "
13.61, 437.856, 0.0228777, NaN, NaN, NaN, 0.04089605, "- N/A -   "
13.79, 445.279, 0.0231859, NaN, NaN, NaN, 0.0372337, "- N/A -   "
13.97, 452.702, 0.02349132, NaN, NaN, NaN, 0.0347922, "- N/A -   "
14.15, 459.889, 0.023794, NaN, NaN, NaN, 0.0347922, "- N/A -   "
14.33, 466.252, 0.0240578, NaN, NaN, NaN, 0.0494415, "- N/A -   "
14.51, 474.382, 0.024391, NaN, NaN, NaN, 0.0347922, "- N/A -   "
14.69, 482.158, 0.0247075, NaN, NaN, NaN, 0.0274675, "- N/A -   "
14.87, 488.6387, 0.0249824, NaN, NaN, NaN, 0.0384545, "- N/A -   "
15.05, 495.826, 0.0252712, NaN, NaN, NaN, 0.0445584, "- N/A -   "
15.23, 504.192, 0.0256017, NaN, NaN, NaN, 0.0299091, "- N/A -   "
15.41, 511.2613, 0.0258904, NaN, NaN, NaN, 0.0347922, "- N/A -   "
15.59, 518.231, 0.0261737, NaN, NaN, NaN, 0.0433376, "- N/A -   "
15.77, 526.274, 0.0264902, NaN, NaN, NaN, 0.0347922, "- N/A -   "
15.95, 533.371, 0.0267818, NaN, NaN, NaN, 0.0384545, "- N/A -   "
16.13, 541.414, 0.0270955, NaN, NaN, NaN, 0.0323506, "- N/A -   "
16.31, 548.5111, 0.0273843, NaN, NaN, NaN, 0.0372337, "- N/A -   "
16.49, 556.3177, 0.02768977, NaN, NaN, NaN, 0.0347922, "- N/A -   "
16.67, 564.0059, 0.02799521, NaN, NaN, NaN, 0.0335714, "- N/A -   "
16.85, 571.4576, 0.0282951, NaN, NaN, NaN, 0.0335714, "- N/A -   "
17.03, 578.554, 0.0285756, NaN, NaN, NaN, 0.04211683, "- N/A -   "
17.21, 586.8341, 0.0288977, NaN, NaN, NaN, 0.0335714, "- N/A -   "
17.39, 594.4041, 0.0292003, NaN, NaN, NaN, 0.0323506, "- N/A -   "
17.57, 601.8558, 0.0294947, NaN, NaN, NaN, 0.0347922, "- N/A -   "
17.75, 608.716, 0.02976678, NaN, NaN, NaN, 0.04699994, "- N/A -   "
17.93, 617.2323, 0.0300917, NaN, NaN, NaN, 0.0347922, "- N/A -   "
18.11, 625.1571, 0.03039988, NaN, NaN, NaN, 0.03112983, "- N/A -   "
18.29, 631.8991, 0.030672, NaN, NaN, NaN, 0.0433376, "- N/A -   "
18.47, 639.8239, 0.0309774, NaN, NaN, NaN, 0.04211683, "- N/A -   "
18.65, 648.458, 0.0313051, NaN, NaN, NaN, 0.0286883, "- N/A -   "
18.83, 655.6735, 0.03159388, NaN, NaN, NaN, 0.0335714, "- N/A -   "
19.01, 662.8887, 0.0318716, NaN, NaN, NaN, 0.0433376, "- N/A -   "
19.19, 671.405, 0.03219088, NaN, NaN, NaN, 0.0347922, "- N/A -   "
19.37, 679.093, 0.032488, NaN, NaN, NaN, 0.03601294, "- N/A -   "
19.55, 686.9, 0.0327934, NaN, NaN, NaN, 0.0347922, "- N/A -   "
19.73, 694.2331, 0.0330767, NaN, NaN, NaN, 0.04089605, "- N/A -   "
19.91, 702.513, 0.03338766, NaN, NaN, NaN, 0.03601294, "- N/A -   "
20.09, 710.5559, 0.0336959, NaN, NaN, NaN, 0.0323506, "- N/A -   "
20.27, 718.2441, 0.0339958, NaN, NaN, NaN, 0.0323506, "- N/A -   "
20.45, 725.5775, 0.0342762, NaN, NaN, NaN, 0.04211683, "- N/A -   "
20.63, 733.8572, 0.03458722, NaN, NaN, NaN, 0.03601294, "- N/A -   "
20.81, 742.1369, 0.034901, NaN, NaN, NaN, 0.0299091, "- N/A -   "
20.99, 749.352, 0.035187, NaN, NaN, NaN, 0.03601294, "- N/A -   "
21.17, 756.6854, 0.0354619, NaN, NaN, NaN, 0.04699994, "- N/A -   "
21.35, 765.5565, 0.0357979, NaN, NaN, NaN, 0.03112983, "- N/A -   "
21.53, 773.7179, 0.03610888, NaN, NaN, NaN, 0.0262467, "- N/A -   "
21.71, 780.46, 0.0363754, NaN, NaN, NaN, 0.0433376, "- N/A -   "
21.89, 788.6212, 0.0366781, NaN, NaN, NaN, 0.04089605, "- N/A -   "
22.07, 797.137, 0.0370002, NaN, NaN, NaN, 0.03112983, "- N/A -   "
22.25, 804.826, 0.0372918, NaN, NaN, NaN, 0.03601294, "- N/A -   "
22.43, 812.277, 0.0375722, NaN, NaN, NaN, 0.0433376, "- N/A -   "
22.61, 820.794, 0.03789433, NaN, NaN, NaN, 0.0347922, "- N/A -   "
22.79, 828.6, 0.0381914, NaN, NaN, NaN, 0.0347922, "- N/A -   "
22.97, 836.8798, 0.03850244, NaN, NaN, NaN, 0.0299091, "- N/A -   "
23.15, 843.9767, 0.03877734, NaN, NaN, NaN, 0.04089605, "- N/A -   "
23.33, 852.375, 0.0390828, NaN, NaN, NaN, 0.0384545, "- N/A -   "
23.51, 860.6543, 0.0393966, NaN, NaN, NaN, 0.0323506, "- N/A -   "
23.69, 868.4608, 0.0396937, NaN, NaN, NaN, 0.0335714, "- N/A -   "
23.87, 875.676, 0.0399713, NaN, NaN, NaN, 0.0433376, "- N/A -   "
24.05, 884.4287, 0.04029622, NaN, NaN, NaN, 0.0323506, "- N/A -   "
24.23, 892.2352, 0.0405961, NaN, NaN, NaN, 0.0335714, "- N/A -   "
24.41, 899.9235, 0.04088767, NaN, NaN, NaN, 0.03601294, "- N/A -   "
24.59, 907.3752, 0.0411709, NaN, NaN, NaN, 0.0445584, "- N/A -   "
24.77, 915.773, 0.0414874, NaN, NaN, NaN, 0.03601294, "- N/A -   "
24.95, 924.2894, 0.041804, NaN, NaN, NaN, 0.0286883, "- N/A -   "
25.13, 931.0314, 0.0420706, NaN, NaN, NaN, 0.0445584, "- N/A -   "
25.31, 939.074, 0.0423732, NaN, NaN, NaN, 0.0433376, "- N/A -   "
25.49, 948.1821, 0.0427064, NaN, NaN, NaN, 0.0274675, "- N/A -   "
25.67, 955.634, 0.04298967, NaN, NaN, NaN, 0.03601294, "- N/A -   "
25.85, 962.967, 0.0432729, NaN, NaN, NaN, 0.0433376, "- N/A -   "
26.03, 971.72, 0.0435922, NaN, NaN, NaN, 0.0335714, "- N/A -   "
26.21, 979.29, 0.0438838, NaN, NaN, NaN, 0.0384545, "- N/A -   "
26.39, 987.6879, 0.04419478, NaN, NaN, NaN, 0.0335714, "- N/A -   "
26.57, 995.2579, 0.0444836, NaN, NaN, NaN, 0.0384545, "- N/A -   "
26.75, 1003.18, 0.0447835, NaN, NaN, NaN, 0.0384545, "- N/A -   "
26.92, 1011.23, 0.04508334, NaN, NaN, NaN, 0.03112983, "- N/A -   "
26.93, 1011.7, 0.0451, NaN, NaN, NaN, 0.0323506, "- N/A -   "
26.94, 1012.172, 0.0451167, NaN, NaN, NaN, 0.0323506, "- N/A -   "
26.98, 1013.954, 0.04518053, NaN, NaN, NaN, 0.0323506, "- N/A -   "
27.02, 1015.5, 0.0452444, NaN, NaN, NaN, 0.0347922, "- N/A -   "
27.06, 1017.29, 0.045311, NaN, NaN, NaN, 0.0347922, "- N/A -   "
27.1, 1019.08, 0.0453805, NaN, NaN, NaN, 0.0323506, "- N/A -   "
27.14, 1020.87, 0.04544432, NaN, NaN, NaN, 0.0335714, "- N/A -   "
27.18, 1022.3, 0.04549708, NaN, NaN, NaN, 0.0396753, "- N/A -   "
27.22, 1023.85, 0.0455582, NaN, NaN, NaN, 0.04211683, "- N/A -   "
27.26, 1025.64, 0.045622, NaN, NaN, NaN, 0.0433376, "- N/A -   "
27.3, 1027.31, 0.0456859, NaN, NaN, NaN, 0.0445584, "- N/A -   "
27.34, 1029.22, 0.0457498, NaN, NaN, NaN, 0.04577916, "- N/A -   "
27.38, 1031.13, 0.04582751, NaN, NaN, NaN, 0.04211683, "- N/A -   "
27.42, 1033.27, 0.0459025, NaN, NaN, NaN, 0.0372337, "- N/A -   "
27.46, 1035.06, 0.0459691, NaN, NaN, NaN, 0.0372337, "- N/A -   "
27.5, 1036.97, 0.0460385, NaN, NaN, NaN, 0.03601294, "- N/A -   "
27.54, 1038.88, 0.0461052, NaN, NaN, NaN, 0.03601294, "- N/A -   "
27.58, 1040.55, 0.04617461, NaN, NaN, NaN, 0.03601294, "- N/A -   "
27.62, 1042.57, 0.046244, NaN, NaN, NaN, 0.0335714, "- N/A -   "
27.66, 1044.6, 0.04631622, NaN, NaN, NaN, 0.03112983, "- N/A -   "
27.7, 1046.39, 0.04638564, NaN, NaN, NaN, 0.0299091, "- N/A -   "
27.74, 1047.94, 0.046444, NaN, NaN, NaN, 0.0335714, "- N/A -   "
27.78, 1049.61, 0.0465106, NaN, NaN, NaN, 0.0347922, "- N/A -   "
27.82, 1051.16, 0.0465689, NaN, NaN, NaN, 0.0372337, "- N/A -   "
27.86, 1052.59, 0.0466244, NaN, NaN, NaN, 0.04211683, "- N/A -   "
27.9, 1054.38, 0.0466855, NaN, NaN, NaN, 0.0445584, "- N/A -   "
27.94, 1055.93, 0.04674939, NaN, NaN, NaN, 0.04699994, "- N/A -   "
27.98, 1057.72, 0.046816, NaN, NaN, NaN, 0.04699994, "- N/A -   "
28.02, 1059.866, 0.046891, NaN, NaN, NaN, 0.04211683, "- N/A -   "
28.06, 1061.89, 0.04696598, NaN, NaN, NaN, 0.0396753, "- N/A -   "
28.1, 1064.04, 0.0470382, NaN, NaN, NaN, 0.03601294, "- N/A -   "
28.14, 1066.07, 0.0471131, NaN, NaN, NaN, 0.0323506, "- N/A -   "
28.18, 1067.98, 0.0471853, NaN, NaN, NaN, 0.0299091, "- N/A -   "
28.22, 1069.88, 0.0472548, NaN, NaN, NaN, 0.0286883, "- N/A -   "
28.26, 1071.672, 0.04732418, NaN, NaN, NaN, 0.0274675, "- N/A -   "
28.3, 1073.7, 0.0473936, NaN, NaN, NaN, 0.0262467, "- N/A -   "
28.34, 1075.25, 0.04745469, NaN, NaN, NaN, 0.0286883, "- N/A -   "
28.38, 1076.8, 0.0475158, NaN, NaN, NaN, 0.03112983, "- N/A -   "
28.42, 1078.23, 0.0475741, NaN, NaN, NaN, 0.0347922, "- N/A -   "
28.46, 1079.9, 0.04763518, NaN, NaN, NaN, 0.0384545, "- N/A -   "
28.5, 1081.57, 0.0476963, NaN, NaN, NaN, 0.0396753, "- N/A -   "
28.54, 1083.12, 0.0477518, NaN, NaN, NaN, 0.0445584, "- N/A -   "
28.58, 1084.79, 0.04781844, NaN, NaN, NaN, 0.0445584, "- N/A -   "
28.62, 1086.7, 0.0478851, NaN, NaN, NaN, 0.0445584, "- N/A -   "
28.66, 1088.49, 0.04794895, NaN, NaN, NaN, 0.04577916, "- N/A -   "
28.7, 1090.39, 0.04801837, NaN, NaN, NaN, 0.0445584, "- N/A -   "
28.74, 1092.42, 0.04809334, NaN, NaN, NaN, 0.04089605, "- N/A -   "
28.78, 1094.45, 0.0481683, NaN, NaN, NaN, 0.0372337, "- N/A -   "
28.82, 1096.71, 0.04824884, NaN, NaN, NaN, 0.0323506, "- N/A -   "
28.86, 1098.5, 0.048321, NaN, NaN, NaN, 0.0299091, "- N/A -   "
28.9, 1100.29, 0.0483849, NaN, NaN, NaN, 0.0299091, "- N/A -   "
28.94, 1102.08, 0.0484488, NaN, NaN, NaN, 0.03112983, "- N/A -   "
28.98, 1103.75, 0.04850985, NaN, NaN, NaN, 0.0335714, "- N/A -   "
29.02, 1105.54, 0.0485765, NaN, NaN, NaN, 0.0347922, "- N/A -   "
29.06, 1107.209, 0.0486376, NaN, NaN, NaN, 0.03601294, "- N/A -   "
29.1, 1108.76, 0.0487015, NaN, NaN, NaN, 0.0384545, "- N/A -   "
29.14, 1110.67, 0.0487681, NaN, NaN, NaN, 0.0384545, "- N/A -   "
29.18, 1112.456, 0.04883196, NaN, NaN, NaN, 0.0384545, "- N/A -   "
29.22, 1114.13, 0.048893, NaN, NaN, NaN, 0.04089605, "- N/A -   "
29.26, 1115.91, 0.0489597, NaN, NaN, NaN, 0.04089605, "- N/A -   "
29.3, 1117.7, 0.0490291, NaN, NaN, NaN, 0.0396753, "- N/A -   "
29.34, 1119.73, 0.0490985, NaN, NaN, NaN, 0.0384545, "- N/A -   "
29.38, 1121.76, 0.0491763, NaN, NaN, NaN, 0.0347922, "- N/A -   "
[...]
35.59, 1398.54, 0.0595113, NaN, NaN, NaN, 0.04089605, "- N/A -   "
35.62, 1400.211, 0.0595724, NaN, NaN, NaN, 0.03601294, "- N/A -   "
35.65, 1402.0, 0.05963352, NaN, NaN, NaN, 0.03112983, "- N/A -   "
35.68, 1403.431, 0.0596863, NaN, NaN, NaN, 0.0299091, "- N/A -   "
35.71, 1404.74, 0.059739, NaN, NaN, NaN, 0.0286883, "- N/A -   "
35.74, 1405.94, 0.0597862, NaN, NaN, NaN, 0.0299091, "- N/A -   "
35.77, 1407.247, 0.0598362, NaN, NaN, NaN, 0.0299091, "- N/A -   "
35.8, 1408.44, 0.0598807, NaN, NaN, NaN, 0.0323506, "- N/A -   "
35.83, 1409.63, 0.05992508, NaN, NaN, NaN, 0.0347922, "- N/A -   "
35.86, 1410.82, 0.0599723, NaN, NaN, NaN, 0.03601294, "- N/A -   "
35.89, 1412.02, 0.0600195, NaN, NaN, NaN, 0.0372337, "- N/A -   "
35.92, 1413.45, 0.0600667, NaN, NaN, NaN, 0.0384545, "- N/A -   "
35.93, 1413.81, 0.0600834, NaN, NaN, NaN, 0.0384545, "- N/A -   "
35.94, 1414.4, 0.0601, NaN, NaN, NaN, 0.0384545, "- N/A -   "
35.95, 1414.76, 0.0601195, NaN, NaN, NaN, 0.0372337, "- N/A -   "
35.97, 1415.59, 0.0601528, NaN, NaN, NaN, 0.0372337, "- N/A -   "
35.99, 1416.43, 0.06018332, NaN, NaN, NaN, 0.0384545, "- N/A -   "
36.01, 1417.38, 0.0602166, NaN, NaN, NaN, 0.0396753, "- N/A -   "
36.03, 1418.1, 0.0602444, NaN, NaN, NaN, 0.04089605, "- N/A -   "
36.05, 1418.81, 0.06027495, NaN, NaN, NaN, 0.0433376, "- N/A -   "
36.07, 1419.77, 0.0603055, NaN, NaN, NaN, 0.0433376, "- N/A -   "
36.09, 1420.484, 0.060336, NaN, NaN, NaN, 0.0445584, "- N/A -   "
36.11, 1421.32, 0.06036936, NaN, NaN, NaN, 0.0445584, "- N/A -   "
36.13, 1422.03, 0.06040268, NaN, NaN, NaN, 0.0445584, "- N/A -   "
36.15, 1422.99, 0.060436, NaN, NaN, NaN, 0.04577916, "- N/A -   "
36.17, 1423.94, 0.0604721, NaN, NaN, NaN, 0.0445584, "- N/A -   "
36.19, 1425.13, 0.060511, NaN, NaN, NaN, 0.04089605, "- N/A -   "
36.21, 1426.21, 0.06054985, NaN, NaN, NaN, 0.0384545, "- N/A -   "
36.23, 1427.28, 0.0605887, NaN, NaN, NaN, 0.03601294, "- N/A -   "
36.25, 1428.24, 0.0606276, NaN, NaN, NaN, 0.0347922, "- N/A -   "
36.27, 1429.19, 0.06066092, NaN, NaN, NaN, 0.0335714, "- N/A -   "
36.29, 1430.024, 0.06069702, NaN, NaN, NaN, 0.0335714, "- N/A -   "
36.31, 1430.98, 0.06073034, NaN, NaN, NaN, 0.0323506, "- N/A -   "
36.33, 1432.05, 0.06076644, NaN, NaN, NaN, 0.03112983, "- N/A -   "
36.35, 1432.767, 0.06079976, NaN, NaN, NaN, 0.03112983, "- N/A -   "
36.37, 1433.6, 0.0608303, NaN, NaN, NaN, 0.0323506, "- N/A -   "
36.39, 1434.32, 0.0608608, NaN, NaN, NaN, 0.0347922, "- N/A -   "
36.41, 1435.15, 0.0608914, NaN, NaN, NaN, 0.03601294, "- N/A -   "
36.43, 1435.99, 0.0609219, NaN, NaN, NaN, 0.0372337, "- N/A -   "
36.45, 1436.94, 0.0609525, NaN, NaN, NaN, 0.0372337, "- N/A -   "
36.47, 1437.78, 0.0609858, NaN, NaN, NaN, 0.0372337, "- N/A -   "
36.49, 1438.73, 0.0610219, NaN, NaN, NaN, 0.0372337, "- N/A -   "
36.51, 1439.68, 0.061058, NaN, NaN, NaN, 0.03601294, "- N/A -   "
36.53, 1440.64, 0.0610941, NaN, NaN, NaN, 0.0335714, "- N/A -   "
36.55, 1441.71, 0.0611302, NaN, NaN, NaN, 0.0323506, "- N/A -   "
36.57, 1442.55, 0.06116351, NaN, NaN, NaN, 0.0335714, "- N/A -   "
36.59, 1443.26, 0.06119406, NaN, NaN, NaN, 0.0335714, "- N/A -   "
36.61, 1444.1, 0.0612246, NaN, NaN, NaN, 0.0347922, "- N/A -   "
36.63, 1444.93, 0.06125792, NaN, NaN, NaN, 0.03601294, "- N/A -   "
36.65, 1445.88, 0.0612912, NaN, NaN, NaN, 0.0347922, "- N/A -   "
36.67, 1446.72, 0.0613246, NaN, NaN, NaN, 0.03601294, "- N/A -   "
36.69, 1447.43, 0.06135511, NaN, NaN, NaN, 0.0372337, "- N/A -   "
36.71, 1448.27, 0.0613829, NaN, NaN, NaN, 0.0384545, "- N/A -   "
36.73, 1448.99, 0.06141342, NaN, NaN, NaN, 0.04089605, "- N/A -   "
36.75, 1449.82, 0.061444, NaN, NaN, NaN, 0.04089605, "- N/A -   "
36.77, 1450.65, 0.06147451, NaN, NaN, NaN, 0.04211683, "- N/A -   "
36.79, 1451.49, 0.06150783, NaN, NaN, NaN, 0.04211683, "- N/A -   "
36.81, 1452.32, 0.0615439, NaN, NaN, NaN, 0.04211683, "- N/A -   "
36.83, 1453.28, 0.06157725, NaN, NaN, NaN, 0.04211683, "- N/A -   "
36.85, 1454.113, 0.06161057, NaN, NaN, NaN, 0.04211683, "- N/A -   "
36.87, 1455.07, 0.0616467, NaN, NaN, NaN, 0.04089605, "- N/A -   "
36.89, 1456.14, 0.0616828, NaN, NaN, NaN, 0.0384545, "- N/A -   "
36.91, 1457.21, 0.06172164, NaN, NaN, NaN, 0.0372337, "- N/A -   "
36.93, 1458.05, 0.06175218, NaN, NaN, NaN, 0.0372337, "- N/A -   "
36.95, 1458.883, 0.0617855, NaN, NaN, NaN, 0.0372337, "- N/A -   "
36.97, 1459.72, 0.0618216, NaN, NaN, NaN, 0.0372337, "- N/A -   "
36.99, 1460.67, 0.06185492, NaN, NaN, NaN, 0.03601294, "- N/A -   "
37.01, 1461.51, 0.06189102, NaN, NaN, NaN, 0.03601294, "- N/A -   "
37.03, 1462.46, 0.0619216, NaN, NaN, NaN, 0.03601294, "- N/A -   "
37.05, 1463.18, 0.0619549, NaN, NaN, NaN, 0.03601294, "- N/A -   "
37.07, 1464.13, 0.061991, NaN, NaN, NaN, 0.03601294, "- N/A -   "
37.09, 1465.08, 0.0620243, NaN, NaN, NaN, 0.0347922, "- N/A -   "
37.11, 1465.919, 0.0620604, NaN, NaN, NaN, 0.0347922, "- N/A -   "
37.13, 1466.87, 0.0620937, NaN, NaN, NaN, 0.0335714, "- N/A -   "
37.15, 1467.71, 0.062127, NaN, NaN, NaN, 0.0335714, "- N/A -   "
37.17, 1468.54, 0.0621576, NaN, NaN, NaN, 0.0347922, "- N/A -   "
37.19, 1469.5, 0.0621937, NaN, NaN, NaN, 0.0347922, "- N/A -   "
37.21, 1470.33, 0.06222423, NaN, NaN, NaN, 0.0347922, "- N/A -   "
37.23, 1471.166, 0.0622576, NaN, NaN, NaN, 0.0347922, "- N/A -   "
37.25, 1471.88, 0.0622909, NaN, NaN, NaN, 0.0347922, "- N/A -   "
37.27, 1472.95, 0.06232697, NaN, NaN, NaN, 0.0347922, "- N/A -   "
37.29, 1473.79, 0.0623575, NaN, NaN, NaN, 0.0347922, "- N/A -   "
37.31, 1474.62, 0.0623936, NaN, NaN, NaN, 0.0347922, "- N/A -   "
37.33, 1475.46, 0.0624242, NaN, NaN, NaN, 0.0347922, "- N/A -   "
37.35, 1476.29, 0.0624547, NaN, NaN, NaN, 0.03601294, "- N/A -   "
37.37, 1476.89, 0.0624852, NaN, NaN, NaN, 0.0372337, "- N/A -   "
37.39, 1477.72, 0.06251579, NaN, NaN, NaN, 0.0396753, "- N/A -   "
37.41, 1478.44, 0.0625436, NaN, NaN, NaN, 0.04089605, "- N/A -   "
37.43, 1479.28, 0.0625741, NaN, NaN, NaN, 0.04211683, "- N/A -   "
37.45, 1480.11, 0.06260742, NaN, NaN, NaN, 0.04211683, "- N/A -   "
37.47, 1480.94, 0.06264352, NaN, NaN, NaN, 0.04089605, "- N/A -   "
37.49, 1481.9, 0.06267684, NaN, NaN, NaN, 0.04211683, "- N/A -   "
37.51, 1482.73, 0.06270739, NaN, NaN, NaN, 0.04211683, "- N/A -   "
37.53, 1483.57, 0.0627407, NaN, NaN, NaN, 0.0433376, "- N/A -   "
37.55, 1484.4, 0.06277125, NaN, NaN, NaN, 0.0433376, "- N/A -   "
37.57, 1485.48, 0.06281013, NaN, NaN, NaN, 0.04211683, "- N/A -   "
37.59, 1486.43, 0.06284345, NaN, NaN, NaN, 0.04089605, "- N/A -   "
37.61, 1487.265, 0.06287955, NaN, NaN, NaN, 0.04089605, "- N/A -   "
37.63, 1488.34, 0.06291287, NaN, NaN, NaN, 0.0396753, "- N/A -   "
37.65, 1489.17, 0.062949, NaN, NaN, NaN, 0.0384545, "- N/A -   "
37.67, 1490.25, 0.06299062, NaN, NaN, NaN, 0.0347922, "- N/A -   "
37.69, 1491.32, 0.06302949, NaN, NaN, NaN, 0.0323506, "- N/A -   "
37.71, 1492.15, 0.06306281, NaN, NaN, NaN, 0.0323506, "- N/A -   "
37.73, 1492.87, 0.06309336, NaN, NaN, NaN, 0.0335714, "- N/A -   "
37.75, 1493.7, 0.0631267, NaN, NaN, NaN, 0.0335714, "- N/A -   "
37.77, 1494.66, 0.06316, NaN, NaN, NaN, 0.0335714, "- N/A -   "
37.79, 1495.49, 0.06319054, NaN, NaN, NaN, 0.0347922, "- N/A -   "
37.81, 1496.209, 0.06322386, NaN, NaN, NaN, 0.0347922, "- N/A -   "
37.83, 1497.163, 0.06325996, NaN, NaN, NaN, 0.0335714, "- N/A -   "
37.85, 1498, 0.0632933, NaN, NaN, NaN, 0.0335714, "- N/A -   "
37.87, 1498.83, 0.0633266, NaN, NaN, NaN, 0.0347922, "- N/A -   "
37.89, 1499.91, 0.0633627, NaN, NaN, NaN, 0.0323506, "- N/A -   "
37.91, 1500.98, 0.0633988, NaN, NaN, NaN, 0.03112983, "- N/A -   "
37.93, 1501.81, 0.06343767, NaN, NaN, NaN, 0.0299091, "- N/A -   "
37.95, 1502.77, 0.063471, NaN, NaN, NaN, 0.0299091, "- N/A -   "
37.97, 1503.6, 0.06350154, NaN, NaN, NaN, 0.03112983, "- N/A -   "
37.99, 1504.44, 0.0635321, NaN, NaN, NaN, 0.0323506, "- N/A -   "
38.01, 1505.15, 0.0635626, NaN, NaN, NaN, 0.0323506, "- N/A -   "
38.03, 1505.99, 0.06359594, NaN, NaN, NaN, 0.0335714, "- N/A -   "
38.05, 1506.82, 0.06362371, NaN, NaN, NaN, 0.0347922, "- N/A -   "
38.07, 1507.42, 0.06365426, NaN, NaN, NaN, 0.0372337, "- N/A -   "
38.09, 1508.25, 0.06368203, NaN, NaN, NaN, 0.0384545, "- N/A -   "
38.11, 1508.85, 0.0637098, NaN, NaN, NaN, 0.04089605, "- N/A -   "
38.13, 1509.68, 0.0637376, NaN, NaN, NaN, 0.0433376, "- N/A -   "
38.15, 1510.28, 0.06376533, NaN, NaN, NaN, 0.04577916, "- N/A -   "
38.17, 1511.12, 0.06379587, NaN, NaN, NaN, 0.0482207, "- N/A -   "
38.19, 1511.831, 0.06382364, NaN, NaN, NaN, 0.0494415, "- N/A -   "
38.21, 1512.785, 0.06385974, NaN, NaN, NaN, 0.0482207, "- N/A -   "
38.23, 1513.62, 0.06389306, NaN, NaN, NaN, 0.0482207, "- N/A -   "
38.245, 1514.34, 0.0639236, NaN, NaN, NaN, 0.04699994, "- N/A -   "