File: 2_Tensile_Data/Hamel_ForceTest_Bolt3_Test5.csv
Time, Load (lb), Position (in), AxialStrain (in), TransverseStrain (in), Auxiliary (), Control Out (V), Stress (psi)
0.0, 1.06153, 0.0, NaN, NaN, NaN, 0.0872856, "- N/A -   "
0.01, 1.88716, 2.49908e-05, NaN, NaN, NaN, 0.095831, "- N/A -   "
0.02, 2.476897, 5.27583e-05, NaN, NaN, NaN, 0.103156, "- N/A -   "
0.03, 3.18458, 8.607931E-5, NaN, NaN, NaN, 0.0982726, "- N/A -   "
0.04, 3.89227, 0.000116624, NaN, NaN, NaN, 0.09216871, "- N/A -   "
0.05, 4.482, 0.000147168, NaN, NaN, NaN, 0.0872856, "- N/A -   "
0.06, 5.071741, 0.000172159, NaN, NaN, NaN, 0.08362327, "- N/A -   "
0.07, 5.66148, 0.000197149, NaN, NaN, NaN, 0.07874016, "- N/A -   "
0.08, 6.369163, 0.00022214, NaN, NaN, NaN, 0.0750778, "- N/A -   "
0.09, 6.84095, 0.000249908, NaN, NaN, NaN, 0.0701947, "- N/A -   "
0.1, 7.430691, 0.000274898, NaN, NaN, NaN, 0.06653238, "- N/A -   "
0.11, 8.020428, 0.000302666, NaN, NaN, NaN, 0.06164927, "- N/A -   "
0.12, 8.610166, 0.00032488, NaN, NaN, NaN, 0.0592077, "- N/A -   "
0.13, 9.199903, 0.000352647, NaN, NaN, NaN, 0.0543246, "- N/A -   "
0.14, 9.671693, 0.000377638, NaN, NaN, NaN, 0.05066227, "- N/A -   "
0.15, 10.1435, 0.000399852, NaN, NaN, NaN, 0.0482207, "- N/A -   "
0.16, 10.6153, 0.000422066, NaN, NaN, NaN, 0.04699994, "- N/A -   "
0.17, 11.0871, 0.000441504, NaN, NaN, NaN, 0.0445584, "- N/A -   "
0.18, 11.4409, 0.000463718, NaN, NaN, NaN, 0.0433376, "- N/A -   "
0.19, 11.9127, 0.000480378, NaN, NaN, NaN, 0.04211683, "- N/A -   "
0.2, 12.2665, 0.000499815, NaN, NaN, NaN, 0.04089605, "- N/A -   "
0.21, 12.6204, 5.192526E-4, NaN, NaN, NaN, 0.04089605, "- N/A -   "
0.22, 13.09217, 5.359131E-4, NaN, NaN, NaN, 0.0396753, "- N/A -   "
0.23, 13.446, 5.525736E-4, NaN, NaN, NaN, 0.0396753, "- N/A -   "
0.24, 13.7999, 0.000569234, NaN, NaN, NaN, 0.0396753, "- N/A -   "
0.25, 14.0357, 5.831179E-4, NaN, NaN, NaN, 0.04089605, "- N/A -   "
0.26, 14.2716, 5.997784E-4, NaN, NaN, NaN, 0.04211683, "- N/A -   "
0.27, 14.6255, 6.108854E-4, NaN, NaN, NaN, 0.0433376, "- N/A -   "
0.28, 14.8614, 0.000624769, NaN, NaN, NaN, 0.0445584, "- N/A -   "
0.29, 15.0973, 0.000638653, NaN, NaN, NaN, 0.04577916, "- N/A -   "
0.3, 15.4511, 6.525367E-4, NaN, NaN, NaN, 0.04699994, "- N/A -   "
0.31, 15.805, 6.691972E-4, NaN, NaN, NaN, 0.04699994, "- N/A -   "
0.32, 16.0409, 6.858577E-4, NaN, NaN, NaN, 0.04699994, "- N/A -   "
0.33, 16.3947, 6.997415E-4, NaN, NaN, NaN, 0.0482207, "- N/A -   "
0.34, 16.74854, 7.191787E-4, NaN, NaN, NaN, 0.0482207, "- N/A -   "
0.35, 17.2203, 0.000733062, NaN, NaN, NaN, 0.0482207, "- N/A -   "
0.36, 17.4562, 7.49723E-4, NaN, NaN, NaN, 0.0482207, "- N/A -   "
0.37, 17.8101, 7.663835E-4, NaN, NaN, NaN, 0.0482207, "- N/A -   "
0.38, 18.16391, 0.000783044, NaN, NaN, NaN, 0.0482207, "- N/A -   "
0.39, 18.5178, 7.997045E-4, NaN, NaN, NaN, 0.0482207, "- N/A -   "
0.4, 18.8716, 8.191418E-4, NaN, NaN, NaN, 0.0482207, "- N/A -   "
0.41, 19.2254, 8.358023E-4, NaN, NaN, NaN, 0.04699994, "- N/A -   "
0.45, 20.7588, 0.000913551, NaN, NaN, NaN, 0.04211683, "- N/A -   "
0.49, 22.29207, 9.857469E-4, NaN, NaN, NaN, 0.0396753, "- N/A -   "
0.53, 23.82539, 0.00105794, NaN, NaN, NaN, 0.0372337, "- N/A -   "
0.57, 25.2408, 0.001130138, NaN, NaN, NaN, 0.0347922, "- N/A -   "
0.61, 26.6561, 0.00119678, NaN, NaN, NaN, 0.0347922, "- N/A -   "
0.65, 28.1894, 0.00127175, NaN, NaN, NaN, 0.03112983, "- N/A -   "
0.69, 29.4869, 0.00133839, NaN, NaN, NaN, 0.03112983, "- N/A -   "
0.73, 30.9022, 0.00140781, NaN, NaN, NaN, 0.0299091, "- N/A -   "
0.77, 32.3176, 0.00147446, NaN, NaN, NaN, 0.0299091, "- N/A -   "
0.81, 33.49708, 0.00153554, NaN, NaN, NaN, 0.0323506, "- N/A -   "
0.85, 34.55861, 0.00159386, NaN, NaN, NaN, 0.03601294, "- N/A -   "
0.89, 35.7381, 0.00165217, NaN, NaN, NaN, 0.0396753, "- N/A -   "
0.93, 36.9176, 0.00171048, NaN, NaN, NaN, 0.0445584, "- N/A -   "
0.97, 38.215, 0.00177157, NaN, NaN, NaN, 0.04577916, "- N/A -   "
1.01, 39.5124, 0.00183821, NaN, NaN, NaN, 0.04577916, "- N/A -   "
1.05, 41.04572, 0.00190763, NaN, NaN, NaN, 0.0445584, "- N/A -   "
1.09, 42.2252, 0.00197427, NaN, NaN, NaN, 0.0445584, "- N/A -   "
1.13, 43.6406, 0.00204369, NaN, NaN, NaN, 0.0433376, "- N/A -   "
1.17, 45.29183, 0.00212144, NaN, NaN, NaN, 0.0384545, "- N/A -   "
1.21, 46.7072, 0.00219641, NaN, NaN, NaN, 0.0347922, "- N/A -   "
1.25, 48.3585, 0.002271383, NaN, NaN, NaN, 0.03112983, "- N/A -   "
1.29, 49.7738, 0.00234636, NaN, NaN, NaN, 0.0274675, "- N/A -   "
1.33, 51.1892, 0.002413, NaN, NaN, NaN, 0.0274675, "- N/A -   "
1.37, 52.36868, 0.00247686, NaN, NaN, NaN, 0.0286883, "- N/A -   "
1.41, 53.4302, 0.00253517, NaN, NaN, NaN, 0.0323506, "- N/A -   "
1.45, 54.7276, 0.00259349, NaN, NaN, NaN, 0.03601294, "- N/A -   "
1.49, 55.9071, 0.00265457, NaN, NaN, NaN, 0.0384545, "- N/A -   "
1.53, 57.08658, 0.00272122, NaN, NaN, NaN, 0.0384545, "- N/A -   "
1.57, 58.5019, 0.00279064, NaN, NaN, NaN, 0.0372337, "- N/A -   "
1.61, 59.79937, 0.00285728, NaN, NaN, NaN, 0.0384545, "- N/A -   "
1.65, 60.97884, 0.00291281, NaN, NaN, NaN, 0.04211683, "- N/A -   "
1.69, 62.2763, 0.00297668, NaN, NaN, NaN, 0.0445584, "- N/A -   "
1.73, 63.45574, 0.003040543, NaN, NaN, NaN, 0.0445584, "- N/A -   "
1.77, 64.75317, 0.00310719, NaN, NaN, NaN, 0.0445584, "- N/A -   "
1.81, 66.2865, 0.00318216, NaN, NaN, NaN, 0.04089605, "- N/A -   "
1.85, 67.9377, 0.003259907, NaN, NaN, NaN, 0.03601294, "- N/A -   "
1.89, 69.35311, 0.003337656, NaN, NaN, NaN, 0.0323506, "- N/A -   "
1.93, 70.7685, 0.00340707, NaN, NaN, NaN, 0.0299091, "- N/A -   "
1.97, 71.94796, 0.00347372, NaN, NaN, NaN, 0.0299091, "- N/A -   "
2.01, 73.12743, 0.00353481, NaN, NaN, NaN, 0.0323506, "- N/A -   "
2.05, 74.3069, 0.00359867, NaN, NaN, NaN, 0.0335714, "- N/A -   "
2.09, 75.6043, 0.00366254, NaN, NaN, NaN, 0.0347922, "- N/A -   "
2.13, 77.0197, 0.00373473, NaN, NaN, NaN, 0.0323506, "- N/A -   "
2.17, 78.31712, 0.00380137, NaN, NaN, NaN, 0.0323506, "- N/A -   "
2.21, 79.37865, 0.00386246, NaN, NaN, NaN, 0.0347922, "- N/A -   "
2.25, 80.32223, 0.00392077, NaN, NaN, NaN, 0.0384545, "- N/A -   "
2.29, 81.5017, 0.003981862, NaN, NaN, NaN, 0.04089605, "- N/A -   "
2.33, 82.79912, 0.00404573, NaN, NaN, NaN, 0.0433376, "- N/A -   "
2.37, 83.9786, 0.00411237, NaN, NaN, NaN, 0.04211683, "- N/A -   "
2.41, 85.51192, 0.00418179, NaN, NaN, NaN, 0.04089605, "- N/A -   "
2.45, 86.69139, 0.00425121, NaN, NaN, NaN, 0.04089605, "- N/A -   "
2.49, 87.9888, 0.004323403, NaN, NaN, NaN, 0.0372337, "- N/A -   "
2.53, 89.28623, 0.004392822, NaN, NaN, NaN, 0.03601294, "- N/A -   "
2.57, 90.4657, 0.004456687, NaN, NaN, NaN, 0.0372337, "- N/A -   "
2.61, 91.64519, 0.004523329, NaN, NaN, NaN, 0.0372337, "- N/A -   "
2.65, 92.82466, 0.004592748, NaN, NaN, NaN, 0.03601294, "- N/A -   "
2.69, 94.24, 0.004664943, NaN, NaN, NaN, 0.0335714, "- N/A -   "
2.73, 95.5374, 0.00473714, NaN, NaN, NaN, 0.0323506, "- N/A -   "
2.77, 96.599, 0.004798227, NaN, NaN, NaN, 0.0335714, "- N/A -   "
2.81, 97.6605, 0.004864869, NaN, NaN, NaN, 0.0335714, "- N/A -   "
2.85, 98.83998, 0.00493151, NaN, NaN, NaN, 0.0335714, "- N/A -   "
2.89, 100.019, 0.004998153, NaN, NaN, NaN, 0.0335714, "- N/A -   "
2.93, 101.199, 0.0050648, NaN, NaN, NaN, 0.0335714, "- N/A -   "
2.97, 102.26, 0.00513144, NaN, NaN, NaN, 0.0335714, "- N/A -   "
3.01, 103.204, 0.005192526, NaN, NaN, NaN, 0.03601294, "- N/A -   "
3.05, 104.148, 0.005250838, NaN, NaN, NaN, 0.0396753, "- N/A -   "
3.09, 105.209, 0.00531193, NaN, NaN, NaN, 0.04211683, "- N/A -   "
3.13, 106.271, 0.00537579, NaN, NaN, NaN, 0.0445584, "- N/A -   "
3.17, 107.45, 0.00543966, NaN, NaN, NaN, 0.0445584, "- N/A -   "
3.21, 108.512, 0.00550908, NaN, NaN, NaN, 0.0433376, "- N/A -   "
3.25, 110.045, 0.005586825, NaN, NaN, NaN, 0.0384545, "- N/A -   "
3.29, 111.224, 0.0056618, NaN, NaN, NaN, 0.0347922, "- N/A -   "
3.33, 112.522, 0.00573399, NaN, NaN, NaN, 0.0323506, "- N/A -   "
3.37, 113.583, 0.00580063, NaN, NaN, NaN, 0.0323506, "- N/A -   "
3.41, 114.527, 0.0058645, NaN, NaN, NaN, 0.0335714, "- N/A -   "
3.45, 115.706, 0.00592837, NaN, NaN, NaN, 0.0347922, "- N/A -   "
3.49, 117.004, 0.006003338, NaN, NaN, NaN, 0.03112983, "- N/A -   "
3.53, 118.301, 0.00607831, NaN, NaN, NaN, 0.0274675, "- N/A -   "
3.57, 119.245, 0.006142175, NaN, NaN, NaN, 0.0299091, "- N/A -   "
3.61, 120.306, 0.00620604, NaN, NaN, NaN, 0.0323506, "- N/A -   "
3.65, 121.132, 0.006261576, NaN, NaN, NaN, 0.03601294, "- N/A -   "
3.69, 121.84, 0.00630878, NaN, NaN, NaN, 0.0445584, "- N/A -   "
3.73, 123.019, 0.006372646, NaN, NaN, NaN, 0.04577916, "- N/A -   "
3.77, 124.081, 0.006433734, NaN, NaN, NaN, 0.0482207, "- N/A -   "
3.81, 125.378, 0.006503153, NaN, NaN, NaN, 0.04699994, "- N/A -   "
3.85, 126.558, 0.006578125, NaN, NaN, NaN, 0.0433376, "- N/A -   "
3.89, 127.855, 0.006653098, NaN, NaN, NaN, 0.0396753, "- N/A -   "
3.93, 129.152, 0.00672807, NaN, NaN, NaN, 0.0372337, "- N/A -   "
3.97, 130.332, 0.006794712, NaN, NaN, NaN, 0.03601294, "- N/A -   "
4.01, 131.393, 0.006861354, NaN, NaN, NaN, 0.03601294, "- N/A -   "
4.05, 132.6909, 0.00693355, NaN, NaN, NaN, 0.0335714, "- N/A -   "
4.09, 133.988, 0.00700852, NaN, NaN, NaN, 0.0299091, "- N/A -   "
4.13, 135.1678, 0.00708072, NaN, NaN, NaN, 0.0274675, "- N/A -   "
4.17, 136.111, 0.007141806, NaN, NaN, NaN, 0.0299091, "- N/A -   "
4.21, 137.291, 0.00720845, NaN, NaN, NaN, 0.03112983, "- N/A -   "
4.25, 138.234, 0.00726676, NaN, NaN, NaN, 0.0335714, "- N/A -   "
4.29, 139.178, 0.00732507, NaN, NaN, NaN, 0.0372337, "- N/A -   "
4.33, 140.24, 0.00738338, NaN, NaN, NaN, 0.04089605, "- N/A -   "
4.37, 141.183, 0.00744447, NaN, NaN, NaN, 0.0433376, "- N/A -   "
4.41, 142.3626, 0.007511114, NaN, NaN, NaN, 0.0433376, "- N/A -   "
4.45, 143.542, 0.00757498, NaN, NaN, NaN, 0.0445584, "- N/A -   "
4.49, 144.604, 0.0076444, NaN, NaN, NaN, 0.0433376, "- N/A -   "
4.53, 145.783, 0.00771104, NaN, NaN, NaN, 0.0433376, "- N/A -   "
4.57, 147.0805, 0.007780459, NaN, NaN, NaN, 0.04211683, "- N/A -   "
4.61, 148.378, 0.007858207, NaN, NaN, NaN, 0.0372337, "- N/A -   "
4.65, 149.675, 0.007935957, NaN, NaN, NaN, 0.0323506, "- N/A -   "
4.69, 150.973, 0.008008153, NaN, NaN, NaN, 0.0299091, "- N/A -   "
4.73, 152.152, 0.008074795, NaN, NaN, NaN, 0.0299091, "- N/A -   "
4.77, 153.096, 0.00813866, NaN, NaN, NaN, 0.03112983, "- N/A -   "
4.81, 154.157, 0.008202525, NaN, NaN, NaN, 0.0323506, "- N/A -   "
4.85, 155.337, 0.00826917, NaN, NaN, NaN, 0.0335714, "- N/A -   "
4.89, 156.398, 0.008333032, NaN, NaN, NaN, 0.0335714, "- N/A -   "
4.93, 157.46, 0.008394121, NaN, NaN, NaN, 0.03601294, "- N/A -   "
4.97, 158.639, 0.00846354, NaN, NaN, NaN, 0.03601294, "- N/A -   "
5.01, 159.701, 0.008524628, NaN, NaN, NaN, 0.0372337, "- N/A -   "
5.05, 160.5265, 0.00858294, NaN, NaN, NaN, 0.04211683, "- N/A -   "
5.09, 161.706, 0.008644029, NaN, NaN, NaN, 0.0433376, "- N/A -   "
5.13, 162.768, 0.008707894, NaN, NaN, NaN, 0.0445584, "- N/A -   "
5.17, 163.947, 0.008774537, NaN, NaN, NaN, 0.0445584, "- N/A -   "
5.21, 165.362, 0.008849508, NaN, NaN, NaN, 0.04089605, "- N/A -   "
5.25, 166.66, 0.008930034, NaN, NaN, NaN, 0.03601294, "- N/A -   "
5.29, 167.839, 0.009002229, NaN, NaN, NaN, 0.0323506, "- N/A -   "
5.33, 169.137, 0.009074425, NaN, NaN, NaN, 0.0299091, "- N/A -   "
5.37, 170.08, 0.00912996, NaN, NaN, NaN, 0.0347922, "- N/A -   "
5.41, 171.142, 0.009191048, NaN, NaN, NaN, 0.0372337, "- N/A -   "
5.45, 172.203, 0.009254914, NaN, NaN, NaN, 0.0384545, "- N/A -   "
5.49, 173.501, 0.00932711, NaN, NaN, NaN, 0.03601294, "- N/A -   "
5.53, 174.798, 0.009399305, NaN, NaN, NaN, 0.0335714, "- N/A -   "
5.57, 176.096, 0.009471501, NaN, NaN, NaN, 0.03112983, "- N/A -   "
5.61, 177.1571, 0.009535366, NaN, NaN, NaN, 0.0323506, "- N/A -   "
5.65, 178.219, 0.009596455, NaN, NaN, NaN, 0.0347922, "- N/A -   "
5.69, 179.28, 0.009657542, NaN, NaN, NaN, 0.0372337, "- N/A -   "
5.73, 180.342, 0.009715854, NaN, NaN, NaN, 0.04089605, "- N/A -   "
5.77, 181.639, 0.009785273, NaN, NaN, NaN, 0.0396753, "- N/A -   "
5.81, 182.819, 0.009854692, NaN, NaN, NaN, 0.0384545, "- N/A -   "
5.85, 183.8801, 0.009921335, NaN, NaN, NaN, 0.0384545, "- N/A -   "
5.89, 185.178, 0.009985199, NaN, NaN, NaN, 0.0396753, "- N/A -   "
5.93, 186.239, 0.0100546, NaN, NaN, NaN, 0.0384545, "- N/A -   "
5.97, 187.536, 0.010124, NaN, NaN, NaN, 0.0372337, "- N/A -   "
5.99, 188.1262, 0.0101574, NaN, NaN, NaN, 0.0372337, "- N/A -   "
6, 188.48, 0.010174, NaN, NaN, NaN, 0.0372337, "- N/A -   "
6.01, 188.716, 0.0101907, NaN, NaN, NaN, 0.0372337, "- N/A -   "
6.03, 189.188, 0.010224, NaN, NaN, NaN, 0.0372337, "- N/A -   "
6.05, 189.895, 0.0102573, NaN, NaN, NaN, 0.0372337, "- N/A -   "
6.07, 190.603, 0.0102906, NaN, NaN, NaN, 0.0372337, "- N/A -   "
6.09, 191.193, 0.010324, NaN, NaN, NaN, 0.0372337, "- N/A -   "
6.11, 191.901, 0.0103628, NaN, NaN, NaN, 0.0347922, "- N/A -   "
6.13, 192.49, 0.0103989, NaN, NaN, NaN, 0.0335714, "- N/A -   "
6.15, 193.08, 0.010435, NaN, NaN, NaN, 0.0335714, "- N/A -   "
6.17, 193.67, 0.0104684, NaN, NaN, NaN, 0.0323506, "- N/A -   "
6.19, 194.377, 0.0105017, NaN, NaN, NaN, 0.0335714, "- N/A -   "
6.21, 194.967, 0.0105322, NaN, NaN, NaN, 0.0335714, "- N/A -   "
6.23, 195.675, 0.0105683, NaN, NaN, NaN, 0.0323506, "- N/A -   "
6.25, 196.147, 0.0106016, NaN, NaN, NaN, 0.0323506, "- N/A -   "
6.27, 196.736, 0.0106322, NaN, NaN, NaN, 0.0335714, "- N/A -   "
6.29, 197.208, 0.0106627, NaN, NaN, NaN, 0.0347922, "- N/A -   "
6.31, 197.916, 0.0106988, NaN, NaN, NaN, 0.0335714, "- N/A -   "
6.33, 198.506, 0.0107349, NaN, NaN, NaN, 0.0323506, "- N/A -   "
6.35, 199.095, 0.0107682, NaN, NaN, NaN, 0.0323506, "- N/A -   "
6.37, 199.685, 0.0107988, NaN, NaN, NaN, 0.0335714, "- N/A -   "
6.39, 200.157, 0.0108293, NaN, NaN, NaN, 0.0347922, "- N/A -   "
6.41, 200.7466, 0.0108571, NaN, NaN, NaN, 0.0372337, "- N/A -   "
6.43, 201.2184, 0.0108876, NaN, NaN, NaN, 0.0384545, "- N/A -   "
6.45, 201.69, 0.0109182, NaN, NaN, NaN, 0.0396753, "- N/A -   "
6.47, 202.28, 0.0109487, NaN, NaN, NaN, 0.04089605, "- N/A -   "
6.49, 202.87, 0.0109793, NaN, NaN, NaN, 0.04211683, "- N/A -   "
6.51, 203.341, 0.0110098, NaN, NaN, NaN, 0.0433376, "- N/A -   "
6.53, 203.813, 0.0110404, NaN, NaN, NaN, 0.0445584, "- N/A -   "
6.55, 204.521, 0.0110737, NaN, NaN, NaN, 0.0445584, "- N/A -   "
6.57, 205.2286, 0.0111098, NaN, NaN, NaN, 0.0433376, "- N/A -   "
6.59, 205.936, 0.0111431, NaN, NaN, NaN, 0.0433376, "- N/A -   "
6.61, 206.526, 0.0111792, NaN, NaN, NaN, 0.0433376, "- N/A -   "
6.63, 207.2337, 0.0112153, NaN, NaN, NaN, 0.04089605, "- N/A -   "
6.65, 208.059, 0.0112542, NaN, NaN, NaN, 0.0384545, "- N/A -   "
6.67, 208.767, 0.0112958, NaN, NaN, NaN, 0.0347922, "- N/A -   "
6.69, 209.475, 0.0113347, NaN, NaN, NaN, 0.0323506, "- N/A -   "
6.71, 210.182, 0.0113708, NaN, NaN, NaN, 0.03112983, "- N/A -   "
6.73, 210.654, 0.0113986, NaN, NaN, NaN, 0.0335714, "- N/A -   "
6.75, 211.244, 0.0114319, NaN, NaN, NaN, 0.0335714, "- N/A -   "
6.77, 211.9516, 0.0114624, NaN, NaN, NaN, 0.0347922, "- N/A -   "
6.79, 212.541, 0.0114958, NaN, NaN, NaN, 0.0347922, "- N/A -   "
6.81, 213.013, 0.0115291, NaN, NaN, NaN, 0.0347922, "- N/A -   "
6.83, 213.721, 0.0115624, NaN, NaN, NaN, 0.0347922, "- N/A -   "
6.85, 214.4285, 0.0115957, NaN, NaN, NaN, 0.0347922, "- N/A -   "
6.87, 215.136, 0.01163459, NaN, NaN, NaN, 0.0335714, "- N/A -   "
6.89, 215.726, 0.0116707, NaN, NaN, NaN, 0.03112983, "- N/A -   "
6.91, 216.552, 0.0117096, NaN, NaN, NaN, 0.0286883, "- N/A -   "
6.93, 217.141, 0.0117429, NaN, NaN, NaN, 0.0286883, "- N/A -   "
6.95, 217.731, 0.0117762, NaN, NaN, NaN, 0.0286883, "- N/A -   "
6.97, 218.321, 0.0118067, NaN, NaN, NaN, 0.0299091, "- N/A -   "
6.99, 219.028, 0.01184007, NaN, NaN, NaN, 0.03112983, "- N/A -   "
7.01, 219.3823, 0.0118706, NaN, NaN, NaN, 0.03112983, "- N/A -   "
7.03, 219.972, 0.0118984, NaN, NaN, NaN, 0.0335714, "- N/A -   "
7.05, 220.562, 0.0119289, NaN, NaN, NaN, 0.0347922, "- N/A -   "
7.07, 221.034, 0.0119567, NaN, NaN, NaN, 0.0372337, "- N/A -   "
7.09, 221.505, 0.01198446, NaN, NaN, NaN, 0.04089605, "- N/A -   "
7.11, 221.977, 0.012015, NaN, NaN, NaN, 0.04211683, "- N/A -   "
7.13, 222.685, 0.0120428, NaN, NaN, NaN, 0.0433376, "- N/A -   "
7.15, 223.157, 0.0120761, NaN, NaN, NaN, 0.0433376, "- N/A -   "
7.17, 223.6284, 0.01210386, NaN, NaN, NaN, 0.04577916, "- N/A -   "
7.19, 224.218, 0.0121372, NaN, NaN, NaN, 0.04699994, "- N/A -   "
7.21, 225.044, 0.0121705, NaN, NaN, NaN, 0.04577916, "- N/A -   "
7.23, 225.6335, 0.0122066, NaN, NaN, NaN, 0.0445584, "- N/A -   "
7.25, 226.459, 0.0122455, NaN, NaN, NaN, 0.0433376, "- N/A -   "
7.27, 227.167, 0.0122816, NaN, NaN, NaN, 0.04089605, "- N/A -   "
7.29, 227.875, 0.0123177, NaN, NaN, NaN, 0.0396753, "- N/A -   "
7.31, 228.5822, 0.0123538, NaN, NaN, NaN, 0.0384545, "- N/A -   "
7.33, 229.172, 0.0123899, NaN, NaN, NaN, 0.0372337, "- N/A -   "
7.35, 229.88, 0.012426, NaN, NaN, NaN, 0.03601294, "- N/A -   "
7.37, 230.705, 0.0124621, NaN, NaN, NaN, 0.0347922, "- N/A -   "
7.39, 231.295, 0.01249816, NaN, NaN, NaN, 0.0335714, "- N/A -   "
7.41, 231.885, 0.0125315, NaN, NaN, NaN, 0.0335714, "- N/A -   "
7.43, 232.592, 0.0125648, NaN, NaN, NaN, 0.0335714, "- N/A -   "
7.45, 233.3001, 0.0126037, NaN, NaN, NaN, 0.0323506, "- N/A -   "
7.47, 233.89, 0.012637, NaN, NaN, NaN, 0.03112983, "- N/A -   "
7.49, 234.598, 0.0126731, NaN, NaN, NaN, 0.0299091, "- N/A -   "
7.51, 235.3052, 0.0127092, NaN, NaN, NaN, 0.0286883, "- N/A -   "
[...]
10.39, 332.048, 0.0175074, NaN, NaN, NaN, 0.0299091, "- N/A -   "
10.51, 335.465, 0.01767958, NaN, NaN, NaN, 0.0433376, "- N/A -   "
10.63, 339.4709, 0.0178684, NaN, NaN, NaN, 0.04699994, "- N/A -   "
10.75, 344.4196, 0.0180961, NaN, NaN, NaN, 0.0347922, "- N/A -   "
10.87, 348.897, 0.0183043, NaN, NaN, NaN, 0.03112983, "- N/A -   "
10.99, 353.021, 0.0185043, NaN, NaN, NaN, 0.03112983, "- N/A -   "
11.11, 357.145, 0.0186931, NaN, NaN, NaN, 0.03601294, "- N/A -   "
11.23, 360.7974, 0.0188764, NaN, NaN, NaN, 0.0445584, "- N/A -   "
11.35, 365.157, 0.0190763, NaN, NaN, NaN, 0.0433376, "- N/A -   "
11.47, 370.223, 0.019304, NaN, NaN, NaN, 0.03112983, "- N/A -   "
11.59, 374.701, 0.0195122, NaN, NaN, NaN, 0.0274675, "- N/A -   "
11.71, 378.707, 0.0197011, NaN, NaN, NaN, 0.0323506, "- N/A -   "
11.83, 382.713, 0.0198899, NaN, NaN, NaN, 0.0372337, "- N/A -   "
11.95, 386.719, 0.0200759, NaN, NaN, NaN, 0.0433376, "- N/A -   "
12.07, 391.4322, 0.02028695, NaN, NaN, NaN, 0.0384545, "- N/A -   "
12.19, 396.381, 0.0205063, NaN, NaN, NaN, 0.0299091, "- N/A -   "
12.31, 400.269, 0.0206924, NaN, NaN, NaN, 0.03601294, "- N/A -   "
12.43, 404.747, 0.0208978, NaN, NaN, NaN, 0.0335714, "- N/A -   "
12.55, 408.6348, 0.0210783, NaN, NaN, NaN, 0.04211683, "- N/A -   "
12.67, 413.23, 0.021281, NaN, NaN, NaN, 0.04211683, "- N/A -   "
12.79, 417.943, 0.0214948, NaN, NaN, NaN, 0.03601294, "- N/A -   "
12.91, 422.42, 0.0216975, NaN, NaN, NaN, 0.0347922, "- N/A -   "
13.03, 427.016, 0.021903, NaN, NaN, NaN, 0.0323506, "- N/A -   "
13.15, 431.2574, 0.0221002, NaN, NaN, NaN, 0.0335714, "- N/A -   "
13.27, 435.2635, 0.0222834, NaN, NaN, NaN, 0.04089605, "- N/A -   "
13.39, 439.623, 0.02247503, NaN, NaN, NaN, 0.04577916, "- N/A -   "
13.51, 444.454, 0.0226916, NaN, NaN, NaN, 0.0372337, "- N/A -   "
13.63, 449.403, 0.0229082, NaN, NaN, NaN, 0.0299091, "- N/A -   "
13.75, 453.88, 0.0231081, NaN, NaN, NaN, 0.0299091, "- N/A -   "
13.87, 458.3574, 0.0233053, NaN, NaN, NaN, 0.03112983, "- N/A -   "
13.99, 461.774, 0.0234636, NaN, NaN, NaN, 0.0494415, "- N/A -   "
14.11, 466.252, 0.02366348, NaN, NaN, NaN, 0.0494415, "- N/A -   "
14.23, 471.5539, 0.0238939, NaN, NaN, NaN, 0.03601294, "- N/A -   "
14.35, 476.974, 0.02412442, NaN, NaN, NaN, 0.0238052, "- N/A -   "
14.47, 481.098, 0.0243105, NaN, NaN, NaN, 0.0286883, "- N/A -   "
14.59, 484.868, 0.02448262, NaN, NaN, NaN, 0.04089605, "- N/A -   "
14.71, 489.2278, 0.0246742, NaN, NaN, NaN, 0.0445584, "- N/A -   "
14.83, 494.1765, 0.0248825, NaN, NaN, NaN, 0.04089605, "- N/A -   "
14.95, 499.361, 0.02510739, NaN, NaN, NaN, 0.0299091, "- N/A -   "
15.07, 503.838, 0.02530454, NaN, NaN, NaN, 0.03112983, "- N/A -   "
15.19, 508.08, 0.02549058, NaN, NaN, NaN, 0.0372337, "- N/A -   "
15.31, 512.3217, 0.0256794, NaN, NaN, NaN, 0.04211683, "- N/A -   "
15.43, 516.8118, 0.025871, NaN, NaN, NaN, 0.04577916, "- N/A -   "
15.55, 522.3711, 0.02610702, NaN, NaN, NaN, 0.0299091, "- N/A -   "
15.67, 526.747, 0.02629584, NaN, NaN, NaN, 0.0347922, "- N/A -   "
15.79, 531.597, 0.0265069, NaN, NaN, NaN, 0.03112983, "- N/A -   "
15.91, 535.9733, 0.0266929, NaN, NaN, NaN, 0.03601294, "- N/A -   "
16.03, 540.231, 0.0268817, NaN, NaN, NaN, 0.04089605, "- N/A -   "
16.15, 545.081, 0.0270872, NaN, NaN, NaN, 0.0384545, "- N/A -   "
16.27, 549.9305, 0.0272927, NaN, NaN, NaN, 0.03601294, "- N/A -   "
16.39, 554.662, 0.0274954, NaN, NaN, NaN, 0.0347922, "- N/A -   "
16.51, 559.275, 0.0276981, NaN, NaN, NaN, 0.0335714, "- N/A -   "
16.63, 563.888, 0.0278925, NaN, NaN, NaN, 0.03601294, "- N/A -   "
16.75, 568.027, 0.0280785, NaN, NaN, NaN, 0.04211683, "- N/A -   "
16.87, 572.9953, 0.028284, NaN, NaN, NaN, 0.0396753, "- N/A -   "
16.99, 578.2, 0.0285006, NaN, NaN, NaN, 0.0323506, "- N/A -   "
17.11, 582.8126, 0.0287033, NaN, NaN, NaN, 0.03112983, "- N/A -   "
17.23, 587.662, 0.0289088, NaN, NaN, NaN, 0.0299091, "- N/A -   "
17.35, 591.565, 0.0290809, NaN, NaN, NaN, 0.04211683, "- N/A -   "
17.47, 596.06, 0.029267, NaN, NaN, NaN, 0.0482207, "- N/A -   "
17.59, 601.2644, 0.0294891, NaN, NaN, NaN, 0.0384545, "- N/A -   "
17.71, 606.35, 0.0297029, NaN, NaN, NaN, 0.0323506, "- N/A -   "
17.83, 611.2, 0.0299084, NaN, NaN, NaN, 0.03112983, "- N/A -   "
17.95, 615.2215, 0.0300806, NaN, NaN, NaN, 0.04211683, "- N/A -   "
18.07, 619.8345, 0.0302777, NaN, NaN, NaN, 0.0433376, "- N/A -   "
18.19, 624.566, 0.0304804, NaN, NaN, NaN, 0.04211683, "- N/A -   "
18.31, 630.125, 0.0307109, NaN, NaN, NaN, 0.0286883, "- N/A -   "
18.43, 634.8562, 0.030908, NaN, NaN, NaN, 0.0299091, "- N/A -   "
18.55, 639.233, 0.0310968, NaN, NaN, NaN, 0.0347922, "- N/A -   "
18.67, 643.8455, 0.0312912, NaN, NaN, NaN, 0.0372337, "- N/A -   "
18.79, 648.3402, 0.0314745, NaN, NaN, NaN, 0.04577916, "- N/A -   "
18.91, 653.663, 0.03169662, NaN, NaN, NaN, 0.0347922, "- N/A -   "
19.03, 658.7489, 0.0319021, NaN, NaN, NaN, 0.0323506, "- N/A -   "
19.15, 663.3618, 0.0320965, NaN, NaN, NaN, 0.0347922, "- N/A -   "
19.27, 668.093, 0.0322992, NaN, NaN, NaN, 0.0335714, "- N/A -   "
19.39, 672.2329, 0.0324713, NaN, NaN, NaN, 0.04577916, "- N/A -   "
19.51, 677.437, 0.0326851, NaN, NaN, NaN, 0.0396753, "- N/A -   "
19.63, 682.5233, 0.0328934, NaN, NaN, NaN, 0.03601294, "- N/A -   "
19.75, 687.491, 0.03310444, NaN, NaN, NaN, 0.03112983, "- N/A -   "
19.87, 692.2224, 0.03330436, NaN, NaN, NaN, 0.03112983, "- N/A -   "
19.99, 697.072, 0.03350151, NaN, NaN, NaN, 0.0323506, "- N/A -   "
20.11, 701.33, 0.0336848, NaN, NaN, NaN, 0.0396753, "- N/A -   "
20.23, 705.943, 0.03387082, NaN, NaN, NaN, 0.04577916, "- N/A -   "
20.35, 711.384, 0.0340957, NaN, NaN, NaN, 0.0347922, "- N/A -   "
20.47, 716.2334, 0.03429566, NaN, NaN, NaN, 0.0347922, "- N/A -   "
20.59, 721.556, 0.0345122, NaN, NaN, NaN, 0.0274675, "- N/A -   "
20.71, 725.8141, 0.03468996, NaN, NaN, NaN, 0.0372337, "- N/A -   "
20.83, 729.8357, 0.0348677, NaN, NaN, NaN, 0.04699994, "- N/A -   "
20.95, 735.277, 0.03508426, NaN, NaN, NaN, 0.0396753, "- N/A -   "
21.07, 740.717, 0.0353008, NaN, NaN, NaN, 0.0323506, "- N/A -   "
21.19, 745.8036, 0.03551188, NaN, NaN, NaN, 0.0274675, "- N/A -   "
21.31, 750.2983, 0.0357007, NaN, NaN, NaN, 0.0323506, "- N/A -   "
21.43, 754.556, 0.0358756, NaN, NaN, NaN, 0.0433376, "- N/A -   "
21.55, 759.4059, 0.0360728, NaN, NaN, NaN, 0.0445584, "- N/A -   "
21.67, 764.847, 0.0362921, NaN, NaN, NaN, 0.0372337, "- N/A -   "
21.79, 770.1694, 0.036506, NaN, NaN, NaN, 0.03112983, "- N/A -   "
21.91, 774.782, 0.03669755, NaN, NaN, NaN, 0.0347922, "- N/A -   "
22.03, 779.3953, 0.03688915, NaN, NaN, NaN, 0.0384545, "- N/A -   "
22.15, 783.89, 0.03707519, NaN, NaN, NaN, 0.0445584, "- N/A -   "
22.27, 789.213, 0.0372834, NaN, NaN, NaN, 0.04089605, "- N/A -   "
22.39, 794.654, 0.03750281, NaN, NaN, NaN, 0.0323506, "- N/A -   "
22.51, 799.267, 0.0376972, NaN, NaN, NaN, 0.0347922, "- N/A -   "
22.63, 804.4709, 0.03790544, NaN, NaN, NaN, 0.03112983, "- N/A -   "
22.75, 808.9655, 0.0380887, NaN, NaN, NaN, 0.0384545, "- N/A -   "
22.87, 813.6968, 0.03828308, NaN, NaN, NaN, 0.04089605, "- N/A -   "
22.99, 818.783, 0.0384858, NaN, NaN, NaN, 0.0396753, "- N/A -   "
23.11, 823.6324, 0.03868849, NaN, NaN, NaN, 0.0384545, "- N/A -   "
23.23, 828.837, 0.0388967, NaN, NaN, NaN, 0.0347922, "- N/A -   "
23.35, 833.6863, 0.03909667, NaN, NaN, NaN, 0.0347922, "- N/A -   "
23.47, 838.536, 0.0392938, NaN, NaN, NaN, 0.03601294, "- N/A -   "
23.59, 843.0304, 0.03947986, NaN, NaN, NaN, 0.04211683, "- N/A -   "
23.71, 848.353, 0.0396881, NaN, NaN, NaN, 0.0384545, "- N/A -   "
23.83, 853.5574, 0.0398964, NaN, NaN, NaN, 0.0347922, "- N/A -   "
23.95, 858.6435, 0.04010463, NaN, NaN, NaN, 0.03112983, "- N/A -   "
24.07, 863.73, 0.0403046, NaN, NaN, NaN, 0.03112983, "- N/A -   "
24.19, 867.6329, 0.0404739, NaN, NaN, NaN, 0.0445584, "- N/A -   "
24.31, 872.601, 0.0406766, NaN, NaN, NaN, 0.0433376, "- N/A -   "
24.43, 878.042, 0.04089323, NaN, NaN, NaN, 0.03601294, "- N/A -   "
24.55, 883.1276, 0.0411015, NaN, NaN, NaN, 0.0323506, "- N/A -   "
24.67, 888.332, 0.04130696, NaN, NaN, NaN, 0.0299091, "- N/A -   "
24.79, 892.7084, 0.04148745, NaN, NaN, NaN, 0.0384545, "- N/A -   "
24.91, 897.203, 0.0416763, NaN, NaN, NaN, 0.0433376, "- N/A -   "
25.03, 902.4074, 0.0418845, NaN, NaN, NaN, 0.0396753, "- N/A -   "
25.15, 907.9666, 0.0421067, NaN, NaN, NaN, 0.0299091, "- N/A -   "
25.27, 913.171, 0.04231215, NaN, NaN, NaN, 0.0274675, "- N/A -   "
25.39, 917.784, 0.04249541, NaN, NaN, NaN, 0.0347922, "- N/A -   "
25.51, 922.3969, 0.04268701, NaN, NaN, NaN, 0.0384545, "- N/A -   "
25.63, 926.8916, 0.0428703, NaN, NaN, NaN, 0.04577916, "- N/A -   "
25.664, 928.4292, 0.0429341, NaN, NaN, NaN, 0.0433376, "- N/A -   "