File: 2_Tensile_Data/Hamel_ForceTest_Bolt3_Test6.csv
Time, Load (lb), Position (in), AxialStrain (in), TransverseStrain (in), Auxiliary (), Control Out (V), Stress (psi)
0.0, 1.41537, 0.0, NaN, NaN, NaN, 0.100714, "- N/A -   "
0.01, 1.88716, 2.49908e-05, NaN, NaN, NaN, 0.095831, "- N/A -   "
0.02, 2.35895, 4.99815e-05, NaN, NaN, NaN, 0.09338949, "- N/A -   "
0.03, 2.83074, 7.49723E-5, NaN, NaN, NaN, 0.0897272, "- N/A -   "
0.04, 3.18458, 9.99631e-05, NaN, NaN, NaN, 0.084844, "- N/A -   "
0.05, 3.65637, 0.000124954, NaN, NaN, NaN, 0.08118171, "- N/A -   "
0.06, 4.12816, 1.499446E-4, NaN, NaN, NaN, 0.07751938, "- N/A -   "
0.07, 4.59995, 0.000174935, NaN, NaN, NaN, 0.0750778, "- N/A -   "
0.08, 4.953794, 0.000199926, NaN, NaN, NaN, 0.07141549, "- N/A -   "
0.09, 5.307636, 0.00022214, NaN, NaN, NaN, 0.06775316, "- N/A -   "
0.1, 5.779426, 2.471309E-4, NaN, NaN, NaN, 0.0640908, "- N/A -   "
0.11, 6.13327, 2.721217E-4, NaN, NaN, NaN, 0.0604285, "- N/A -   "
0.12, 6.60506, 0.000294336, NaN, NaN, NaN, 0.0579869, "- N/A -   "
0.13, 7.07685, 0.000319326, NaN, NaN, NaN, 0.0543246, "- N/A -   "
0.14, 7.430691, 0.00034154, NaN, NaN, NaN, 0.05188305, "- N/A -   "
0.15, 7.90248, 3.637545E-4, NaN, NaN, NaN, 0.05066227, "- N/A -   "
0.16, 8.138375, 0.000383192, NaN, NaN, NaN, 0.0482207, "- N/A -   "
0.17, 8.492218, 0.000402629, NaN, NaN, NaN, 0.04699994, "- N/A -   "
0.18, 8.846061, 0.000422066, NaN, NaN, NaN, 0.04577916, "- N/A -   "
0.19, 9.081955, 0.000441504, NaN, NaN, NaN, 0.0445584, "- N/A -   "
0.2, 9.553744, 4.609408E-4, NaN, NaN, NaN, 0.0433376, "- N/A -   "
0.21, 9.78964, 0.000480378, NaN, NaN, NaN, 0.04211683, "- N/A -   "
0.22, 10.26143, 0.000499815, NaN, NaN, NaN, 0.04089605, "- N/A -   "
0.23, 10.4973, 5.192526E-4, NaN, NaN, NaN, 0.04089605, "- N/A -   "
0.24, 10.73322, 5.359131E-4, NaN, NaN, NaN, 0.0396753, "- N/A -   "
0.25, 11.0871, 5.525736E-4, NaN, NaN, NaN, 0.0396753, "- N/A -   "
0.26, 11.4409, 0.000569234, NaN, NaN, NaN, 0.0396753, "- N/A -   "
0.27, 11.7947, 0.000588671, NaN, NaN, NaN, 0.0384545, "- N/A -   "
0.28, 12.14859, 6.053319E-4, NaN, NaN, NaN, 0.0384545, "- N/A -   "
0.29, 12.3845, 0.000624769, NaN, NaN, NaN, 0.0372337, "- N/A -   "
0.3, 12.6204, 6.442064E-4, NaN, NaN, NaN, 0.03601294, "- N/A -   "
0.31, 13.09217, 6.636437E-4, NaN, NaN, NaN, 0.0347922, "- N/A -   "
0.32, 13.3281, 6.830809E-4, NaN, NaN, NaN, 0.0335714, "- N/A -   "
0.33, 13.6819, 7.025182E-4, NaN, NaN, NaN, 0.0323506, "- N/A -   "
0.34, 14.0357, 0.000724732, NaN, NaN, NaN, 0.03112983, "- N/A -   "
0.35, 14.3896, 7.413927E-4, NaN, NaN, NaN, 0.0299091, "- N/A -   "
0.36, 14.7434, 7.6083E-4, NaN, NaN, NaN, 0.0286883, "- N/A -   "
0.37, 14.9793, 7.774905E-4, NaN, NaN, NaN, 0.0286883, "- N/A -   "
0.41, 16.0409, 8.38579E-4, NaN, NaN, NaN, 0.03112983, "- N/A -   "
0.45, 16.9844, 8.941141E-4, NaN, NaN, NaN, 0.03601294, "- N/A -   "
0.49, 17.928, 0.000949649, NaN, NaN, NaN, 0.04089605, "- N/A -   "
0.53, 18.8716, 0.00101074, NaN, NaN, NaN, 0.0433376, "- N/A -   "
0.57, 20.05107, 0.001074603, NaN, NaN, NaN, 0.0445584, "- N/A -   "
0.61, 21.1126, 0.001141245, NaN, NaN, NaN, 0.0445584, "- N/A -   "
0.65, 22.41, 0.00121066, NaN, NaN, NaN, 0.0433376, "- N/A -   "
0.69, 23.7074, 0.00128564, NaN, NaN, NaN, 0.04089605, "- N/A -   "
0.73, 24.8869, 0.00135505, NaN, NaN, NaN, 0.0384545, "- N/A -   "
0.77, 26.18434, 0.00142447, NaN, NaN, NaN, 0.0372337, "- N/A -   "
0.81, 27.4818, 0.00149389, NaN, NaN, NaN, 0.0372337, "- N/A -   "
0.85, 28.6612, 0.00156609, NaN, NaN, NaN, 0.0335714, "- N/A -   "
0.89, 29.9587, 0.00163828, NaN, NaN, NaN, 0.03112983, "- N/A -   "
0.93, 31.2561, 0.00170493, NaN, NaN, NaN, 0.03112983, "- N/A -   "
0.97, 32.4356, 0.00177434, NaN, NaN, NaN, 0.0299091, "- N/A -   "
1.01, 33.61503, 0.00184376, NaN, NaN, NaN, 0.0286883, "- N/A -   "
1.05, 34.6766, 0.00190485, NaN, NaN, NaN, 0.03112983, "- N/A -   "
1.09, 35.6201, 0.00196316, NaN, NaN, NaN, 0.03601294, "- N/A -   "
1.13, 36.6817, 0.00202148, NaN, NaN, NaN, 0.0396753, "- N/A -   "
1.17, 37.74319, 0.00207701, NaN, NaN, NaN, 0.0433376, "- N/A -   "
1.21, 39.04061, 0.00214365, NaN, NaN, NaN, 0.0433376, "- N/A -   "
1.25, 40.10214, 0.002213071, NaN, NaN, NaN, 0.0433376, "- N/A -   "
1.29, 41.39956, 0.00227694, NaN, NaN, NaN, 0.0445584, "- N/A -   "
1.33, 42.579, 0.002340802, NaN, NaN, NaN, 0.0445584, "- N/A -   "
1.37, 43.75851, 0.00241022, NaN, NaN, NaN, 0.0433376, "- N/A -   "
1.41, 45.29183, 0.002485193, NaN, NaN, NaN, 0.04089605, "- N/A -   "
1.45, 46.8251, 0.00256572, NaN, NaN, NaN, 0.0347922, "- N/A -   "
1.49, 48.12257, 0.00264069, NaN, NaN, NaN, 0.0299091, "- N/A -   "
1.53, 49.41999, 0.00271011, NaN, NaN, NaN, 0.0286883, "- N/A -   "
1.57, 50.4815, 0.00277398, NaN, NaN, NaN, 0.0299091, "- N/A -   "
1.61, 51.66099, 0.00283784, NaN, NaN, NaN, 0.03112983, "- N/A -   "
1.65, 52.84047, 0.00289615, NaN, NaN, NaN, 0.0347922, "- N/A -   "
1.69, 54.13789, 0.00296002, NaN, NaN, NaN, 0.03601294, "- N/A -   "
1.73, 55.3174, 0.00302666, NaN, NaN, NaN, 0.03601294, "- N/A -   "
1.77, 56.6148, 0.0030933, NaN, NaN, NaN, 0.0372337, "- N/A -   "
1.81, 57.6763, 0.003157167, NaN, NaN, NaN, 0.0372337, "- N/A -   "
1.85, 58.8558, 0.00321826, NaN, NaN, NaN, 0.0396753, "- N/A -   "
1.89, 59.9173, 0.003279344, NaN, NaN, NaN, 0.04211683, "- N/A -   "
1.93, 61.2147, 0.00334043, NaN, NaN, NaN, 0.0445584, "- N/A -   "
1.97, 62.3942, 0.00340707, NaN, NaN, NaN, 0.0445584, "- N/A -   "
2.01, 63.80958, 0.00348205, NaN, NaN, NaN, 0.04089605, "- N/A -   "
2.05, 65.3429, 0.00356257, NaN, NaN, NaN, 0.03601294, "- N/A -   "
2.09, 66.64032, 0.00363199, NaN, NaN, NaN, 0.0335714, "- N/A -   "
2.13, 67.9377, 0.003704187, NaN, NaN, NaN, 0.03112983, "- N/A -   "
2.17, 69.11722, 0.003770829, NaN, NaN, NaN, 0.03112983, "- N/A -   "
2.21, 70.41464, 0.00383469, NaN, NaN, NaN, 0.0323506, "- N/A -   "
2.25, 71.59412, 0.00390134, NaN, NaN, NaN, 0.0335714, "- N/A -   "
2.29, 72.77359, 0.003965202, NaN, NaN, NaN, 0.0335714, "- N/A -   "
2.33, 74.071, 0.00403462, NaN, NaN, NaN, 0.0323506, "- N/A -   "
2.37, 75.36844, 0.004104039, NaN, NaN, NaN, 0.03112983, "- N/A -   "
2.41, 76.5479, 0.004165128, NaN, NaN, NaN, 0.0335714, "- N/A -   "
2.45, 77.72738, 0.004226216, NaN, NaN, NaN, 0.03601294, "- N/A -   "
2.49, 78.67096, 0.004287305, NaN, NaN, NaN, 0.0396753, "- N/A -   "
2.53, 79.85043, 0.004345617, NaN, NaN, NaN, 0.04211683, "- N/A -   "
2.57, 80.912, 0.004409482, NaN, NaN, NaN, 0.0433376, "- N/A -   "
2.61, 82.44528, 0.004484454, NaN, NaN, NaN, 0.0396753, "- N/A -   "
2.65, 83.86065, 0.004553873, NaN, NaN, NaN, 0.0384545, "- N/A -   "
2.69, 84.92217, 0.004620515, NaN, NaN, NaN, 0.0384545, "- N/A -   "
2.73, 86.2196, 0.00468993, NaN, NaN, NaN, 0.0372337, "- N/A -   "
2.77, 87.51702, 0.004759353, NaN, NaN, NaN, 0.0372337, "- N/A -   "
2.81, 88.8144, 0.004828771, NaN, NaN, NaN, 0.03601294, "- N/A -   "
2.85, 89.758, 0.00488986, NaN, NaN, NaN, 0.0372337, "- N/A -   "
2.89, 91.05545, 0.004959279, NaN, NaN, NaN, 0.03601294, "- N/A -   "
2.93, 92.23492, 0.005028697, NaN, NaN, NaN, 0.0347922, "- N/A -   "
2.97, 93.53234, 0.00510089, NaN, NaN, NaN, 0.0335714, "- N/A -   "
3.01, 94.59387, 0.00516476, NaN, NaN, NaN, 0.0335714, "- N/A -   "
3.05, 95.7733, 0.005234177, NaN, NaN, NaN, 0.0323506, "- N/A -   "
3.09, 96.95282, 0.005303596, NaN, NaN, NaN, 0.0323506, "- N/A -   "
3.13, 98.13229, 0.00537301, NaN, NaN, NaN, 0.0299091, "- N/A -   "
3.17, 99.1938, 0.005439657, NaN, NaN, NaN, 0.0299091, "- N/A -   "
3.21, 100.137, 0.00549797, NaN, NaN, NaN, 0.0335714, "- N/A -   "
3.25, 101.081, 0.005550727, NaN, NaN, NaN, 0.0396753, "- N/A -   "
3.29, 102.26, 0.005614592, NaN, NaN, NaN, 0.04089605, "- N/A -   "
3.33, 103.086, 0.00567846, NaN, NaN, NaN, 0.04211683, "- N/A -   "
3.37, 104.266, 0.00574232, NaN, NaN, NaN, 0.0433376, "- N/A -   "
3.41, 105.445, 0.00581174, NaN, NaN, NaN, 0.04211683, "- N/A -   "
3.45, 106.625, 0.00587838, NaN, NaN, NaN, 0.04211683, "- N/A -   "
3.49, 107.922, 0.005956133, NaN, NaN, NaN, 0.0384545, "- N/A -   "
3.53, 109.219, 0.006033882, NaN, NaN, NaN, 0.0347922, "- N/A -   "
3.57, 110.281, 0.00610052, NaN, NaN, NaN, 0.0347922, "- N/A -   "
3.61, 111.342, 0.006167166, NaN, NaN, NaN, 0.0335714, "- N/A -   "
3.65, 112.522, 0.006236585, NaN, NaN, NaN, 0.0323506, "- N/A -   "
3.69, 113.701, 0.006306, NaN, NaN, NaN, 0.0323506, "- N/A -   "
3.73, 114.881, 0.006378199, NaN, NaN, NaN, 0.0286883, "- N/A -   "
3.77, 115.942, 0.00644206, NaN, NaN, NaN, 0.0299091, "- N/A -   "
3.81, 116.886, 0.00650593, NaN, NaN, NaN, 0.03112983, "- N/A -   "
3.85, 118.183, 0.006567018, NaN, NaN, NaN, 0.0335714, "- N/A -   "
3.89, 118.891, 0.00662255, NaN, NaN, NaN, 0.0384545, "- N/A -   "
3.93, 119.835, 0.006678088, NaN, NaN, NaN, 0.0433376, "- N/A -   "
3.97, 120.896, 0.00674195, NaN, NaN, NaN, 0.04577916, "- N/A -   "
4.01, 121.958, 0.00680304, NaN, NaN, NaN, 0.04699994, "- N/A -   "
4.05, 123.137, 0.006872461, NaN, NaN, NaN, 0.04577916, "- N/A -   "
4.09, 124.435, 0.00694466, NaN, NaN, NaN, 0.0433376, "- N/A -   "
4.13, 125.614, 0.007016852, NaN, NaN, NaN, 0.04089605, "- N/A -   "
4.17, 126.911, 0.00708905, NaN, NaN, NaN, 0.0384545, "- N/A -   "
4.21, 127.973, 0.00716124, NaN, NaN, NaN, 0.03601294, "- N/A -   "
4.25, 129.152, 0.00722789, NaN, NaN, NaN, 0.03601294, "- N/A -   "
4.29, 130.568, 0.00730563, NaN, NaN, NaN, 0.0323506, "- N/A -   "
4.33, 131.747, 0.00737505, NaN, NaN, NaN, 0.0299091, "- N/A -   "
4.37, 132.9268, 0.007441695, NaN, NaN, NaN, 0.0299091, "- N/A -   "
4.41, 133.988, 0.007508337, NaN, NaN, NaN, 0.0299091, "- N/A -   "
4.45, 135.05, 0.00757498, NaN, NaN, NaN, 0.0299091, "- N/A -   "
4.49, 135.993, 0.00763329, NaN, NaN, NaN, 0.0335714, "- N/A -   "
4.53, 136.937, 0.00769438, NaN, NaN, NaN, 0.03601294, "- N/A -   "
4.57, 137.999, 0.007752691, NaN, NaN, NaN, 0.04089605, "- N/A -   "
4.61, 139.06, 0.007811003, NaN, NaN, NaN, 0.0433376, "- N/A -   "
4.65, 140.004, 0.007874868, NaN, NaN, NaN, 0.0445584, "- N/A -   "
4.69, 141.183, 0.00794151, NaN, NaN, NaN, 0.04577916, "- N/A -   "
4.73, 142.3626, 0.008010929, NaN, NaN, NaN, 0.0445584, "- N/A -   "
4.77, 143.66, 0.008085901, NaN, NaN, NaN, 0.04089605, "- N/A -   "
4.81, 144.8395, 0.00815532, NaN, NaN, NaN, 0.0384545, "- N/A -   "
4.85, 146.137, 0.008230292, NaN, NaN, NaN, 0.03601294, "- N/A -   "
4.89, 147.434, 0.008302488, NaN, NaN, NaN, 0.0335714, "- N/A -   "
4.93, 148.732, 0.008374684, NaN, NaN, NaN, 0.0299091, "- N/A -   "
4.97, 149.793, 0.0084441, NaN, NaN, NaN, 0.0299091, "- N/A -   "
5.01, 150.855, 0.008510744, NaN, NaN, NaN, 0.0299091, "- N/A -   "
5.05, 151.916, 0.008571833, NaN, NaN, NaN, 0.0323506, "- N/A -   "
5.09, 153.096, 0.008632922, NaN, NaN, NaN, 0.0335714, "- N/A -   "
5.13, 154.0394, 0.008696787, NaN, NaN, NaN, 0.0347922, "- N/A -   "
5.17, 155.337, 0.008763429, NaN, NaN, NaN, 0.03601294, "- N/A -   "
5.21, 156.398, 0.008827294, NaN, NaN, NaN, 0.03601294, "- N/A -   "
5.25, 157.342, 0.008885606, NaN, NaN, NaN, 0.0396753, "- N/A -   "
5.29, 158.403, 0.008946694, NaN, NaN, NaN, 0.04211683, "- N/A -   "
5.33, 159.583, 0.009013337, NaN, NaN, NaN, 0.0433376, "- N/A -   "
5.37, 160.5265, 0.009074425, NaN, NaN, NaN, 0.0445584, "- N/A -   "
5.41, 162.06, 0.00914662, NaN, NaN, NaN, 0.04211683, "- N/A -   "
5.45, 163.357, 0.009221593, NaN, NaN, NaN, 0.0384545, "- N/A -   "
5.49, 164.537, 0.009293789, NaN, NaN, NaN, 0.03601294, "- N/A -   "
5.53, 165.952, 0.009371538, NaN, NaN, NaN, 0.0323506, "- N/A -   "
5.57, 167.132, 0.009438179, NaN, NaN, NaN, 0.03112983, "- N/A -   "
5.61, 168.075, 0.009502044, NaN, NaN, NaN, 0.0323506, "- N/A -   "
5.65, 169.255, 0.009563134, NaN, NaN, NaN, 0.03601294, "- N/A -   "
5.69, 170.1982, 0.009624222, NaN, NaN, NaN, 0.0384545, "- N/A -   "
5.73, 171.378, 0.009688088, NaN, NaN, NaN, 0.0384545, "- N/A -   "
5.77, 172.793, 0.00976306, NaN, NaN, NaN, 0.0347922, "- N/A -   "
5.81, 174.09, 0.009838033, NaN, NaN, NaN, 0.0323506, "- N/A -   "
5.85, 175.27, 0.009901897, NaN, NaN, NaN, 0.0323506, "- N/A -   "
5.89, 176.449, 0.009962986, NaN, NaN, NaN, 0.0347922, "- N/A -   "
5.93, 177.275, 0.0100241, NaN, NaN, NaN, 0.0384545, "- N/A -   "
5.97, 178.572, 0.0100852, NaN, NaN, NaN, 0.0396753, "- N/A -   "
6.01, 179.752, 0.0101546, NaN, NaN, NaN, 0.0396753, "- N/A -   "
6.05, 180.813, 0.0102157, NaN, NaN, NaN, 0.04089605, "- N/A -   "
6.09, 182.1109, 0.0102823, NaN, NaN, NaN, 0.04089605, "- N/A -   "
6.13, 183.526, 0.0103601, NaN, NaN, NaN, 0.0372337, "- N/A -   "
6.17, 184.824, 0.01042948, NaN, NaN, NaN, 0.0347922, "- N/A -   "
6.21, 186.003, 0.0104961, NaN, NaN, NaN, 0.03601294, "- N/A -   "
6.25, 187.065, 0.01056, NaN, NaN, NaN, 0.03601294, "- N/A -   "
6.27, 187.536, 0.0105933, NaN, NaN, NaN, 0.0372337, "- N/A -   "
6.28, 187.89, 0.01061, NaN, NaN, NaN, 0.0372337, "- N/A -   "
6.29, 188.244, 0.0106266, NaN, NaN, NaN, 0.03601294, "- N/A -   "
6.43, 192.608, 0.01086543, NaN, NaN, NaN, 0.0335714, "- N/A -   "
6.57, 196.854, 0.0111015, NaN, NaN, NaN, 0.0323506, "- N/A -   "
6.71, 200.7466, 0.011318, NaN, NaN, NaN, 0.0396753, "- N/A -   "
6.85, 204.9927, 0.0115457, NaN, NaN, NaN, 0.04211683, "- N/A -   "
6.99, 209.829, 0.0118012, NaN, NaN, NaN, 0.0323506, "- N/A -   "
7.13, 214.075, 0.0120372, NaN, NaN, NaN, 0.0323506, "- N/A -   "
7.27, 218.4387, 0.01226769, NaN, NaN, NaN, 0.0335714, "- N/A -   "
7.41, 222.095, 0.0124704, NaN, NaN, NaN, 0.04577916, "- N/A -   "
7.55, 227.049, 0.0127259, NaN, NaN, NaN, 0.03601294, "- N/A -   "
7.69, 231.413, 0.0129674, NaN, NaN, NaN, 0.0323506, "- N/A -   "
7.83, 235.895, 0.0132118, NaN, NaN, NaN, 0.0274675, "- N/A -   "
7.97, 239.669, 0.0134173, NaN, NaN, NaN, 0.0396753, "- N/A -   "
8.11, 244.15, 0.0136477, NaN, NaN, NaN, 0.04211683, "- N/A -   "
8.25, 248.98, 0.0138976, NaN, NaN, NaN, 0.0347922, "- N/A -   "
8.39, 253.693, 0.0141392, NaN, NaN, NaN, 0.03112983, "- N/A -   "
8.53, 257.817, 0.01435303, NaN, NaN, NaN, 0.0396753, "- N/A -   "
8.67, 262.295, 0.0145891, NaN, NaN, NaN, 0.0384545, "- N/A -   "
8.81, 266.537, 0.0148029, NaN, NaN, NaN, 0.04699994, "- N/A -   "
8.95, 272.074, 0.0150778, NaN, NaN, NaN, 0.0299091, "- N/A -   "
9.09, 276.434, 0.0153027, NaN, NaN, NaN, 0.0335714, "- N/A -   "
9.23, 281.2648, 0.0155387, NaN, NaN, NaN, 0.03112983, "- N/A -   "
9.37, 285.153, 0.0157414, NaN, NaN, NaN, 0.0445584, "- N/A -   "
9.51, 290.102, 0.015983, NaN, NaN, NaN, 0.04089605, "- N/A -   "
9.65, 295.05, 0.0162273, NaN, NaN, NaN, 0.03601294, "- N/A -   "
9.79, 299.999, 0.0164689, NaN, NaN, NaN, 0.0323506, "- N/A -   "
9.93, 304.477, 0.01669661, NaN, NaN, NaN, 0.03601294, "- N/A -   "
10.07, 309.072, 0.0169187, NaN, NaN, NaN, 0.0396753, "- N/A -   "
10.21, 313.667, 0.0171381, NaN, NaN, NaN, 0.04577916, "- N/A -   "
10.35, 319.323, 0.0174075, NaN, NaN, NaN, 0.03112983, "- N/A -   "
10.49, 324.036, 0.0176352, NaN, NaN, NaN, 0.0323506, "- N/A -   "
10.63, 328.984, 0.01787673, NaN, NaN, NaN, 0.0299091, "- N/A -   "
10.77, 333.108, 0.0180767, NaN, NaN, NaN, 0.0445584, "- N/A -   "
10.91, 337.939, 0.0183099, NaN, NaN, NaN, 0.0445584, "- N/A -   "
11.05, 343.477, 0.0185626, NaN, NaN, NaN, 0.0347922, "- N/A -   "
11.19, 348.6613, 0.0188097, NaN, NaN, NaN, 0.0286883, "- N/A -   "
11.33, 353.257, 0.01902908, NaN, NaN, NaN, 0.0347922, "- N/A -   "
11.47, 357.734, 0.0192429, NaN, NaN, NaN, 0.0433376, "- N/A -   "
11.61, 362.6826, 0.0194789, NaN, NaN, NaN, 0.0433376, "- N/A -   "
11.75, 368.81, 0.019751, NaN, NaN, NaN, 0.0262467, "- N/A -   "
11.89, 373.64, 0.0199732, NaN, NaN, NaN, 0.03112983, "- N/A -   "
12.03, 378.353, 0.0201981, NaN, NaN, NaN, 0.0347922, "- N/A -   "
12.17, 382.9487, 0.0204091, NaN, NaN, NaN, 0.0445584, "- N/A -   "
12.31, 388.369, 0.0206563, NaN, NaN, NaN, 0.0372337, "- N/A -   "
12.45, 393.671, 0.0208978, NaN, NaN, NaN, 0.0335714, "- N/A -   "
12.59, 398.855, 0.0211339, NaN, NaN, NaN, 0.0347922, "- N/A -   "
12.73, 403.804, 0.0213588, NaN, NaN, NaN, 0.0372337, "- N/A -   "
12.87, 408.87, 0.0215837, NaN, NaN, NaN, 0.04089605, "- N/A -   "
13.01, 414.1726, 0.0218225, NaN, NaN, NaN, 0.0384545, "- N/A -   "
13.15, 419.475, 0.0220668, NaN, NaN, NaN, 0.0347922, "- N/A -   "
13.29, 424.8948, 0.0223056, NaN, NaN, NaN, 0.0323506, "- N/A -   "
13.43, 429.9613, 0.0225389, NaN, NaN, NaN, 0.0323506, "- N/A -   "
13.57, 434.91, 0.0227499, NaN, NaN, NaN, 0.04089605, "- N/A -   "
13.71, 440.4478, 0.0229971, NaN, NaN, NaN, 0.03601294, "- N/A -   "
13.85, 445.161, 0.0232136, NaN, NaN, NaN, 0.0433376, "- N/A -   "
13.99, 450.6987, 0.0234552, NaN, NaN, NaN, 0.0396753, "- N/A -   "
14.13, 456.354, 0.0236968, NaN, NaN, NaN, 0.0347922, "- N/A -   "
14.27, 461.1852, 0.0239134, NaN, NaN, NaN, 0.04211683, "- N/A -   "
14.41, 466.841, 0.0241605, NaN, NaN, NaN, 0.03601294, "- N/A -   "
14.55, 472.732, 0.0244132, NaN, NaN, NaN, 0.0286883, "- N/A -   "
14.69, 477.9165, 0.0246437, NaN, NaN, NaN, 0.0299091, "- N/A -   "
14.83, 482.394, 0.0248464, NaN, NaN, NaN, 0.04211683, "- N/A -   "
14.97, 487.8139, 0.0250741, NaN, NaN, NaN, 0.0445584, "- N/A -   "
15.11, 493.941, 0.0253351, NaN, NaN, NaN, 0.0323506, "- N/A -   "
15.25, 499.4787, 0.0255739, NaN, NaN, NaN, 0.0299091, "- N/A -   "
15.39, 504.5452, 0.0257905, NaN, NaN, NaN, 0.0384545, "- N/A -   "
15.53, 509.73, 0.0260154, NaN, NaN, NaN, 0.04211683, "- N/A -   "
15.67, 515.274, 0.0262514, NaN, NaN, NaN, 0.04089605, "- N/A -   "
15.81, 521.3065, 0.0265041, NaN, NaN, NaN, 0.03112983, "- N/A -   "
15.95, 526.393, 0.0267262, NaN, NaN, NaN, 0.03601294, "- N/A -   "
16.09, 532.07, 0.026965, NaN, NaN, NaN, 0.0335714, "- N/A -   "
[...]
27.33, 988.2793, 0.04567479, NaN, NaN, NaN, 0.0445584, "- N/A -   "
27.41, 992.064, 0.0458247, NaN, NaN, NaN, 0.0384545, "- N/A -   "
27.49, 995.494, 0.0459608, NaN, NaN, NaN, 0.0372337, "- N/A -   "
27.57, 999.2794, 0.046108, NaN, NaN, NaN, 0.0299091, "- N/A -   "
27.65, 1002.71, 0.046244, NaN, NaN, NaN, 0.0286883, "- N/A -   "
27.73, 1005.43, 0.0463662, NaN, NaN, NaN, 0.0347922, "- N/A -   "
27.81, 1008.27, 0.0464801, NaN, NaN, NaN, 0.04211683, "- N/A -   "
27.89, 1011.34, 0.046605, NaN, NaN, NaN, 0.04577916, "- N/A -   "
27.97, 1015.03, 0.04674662, NaN, NaN, NaN, 0.04211683, "- N/A -   "
28.05, 1018.72, 0.0468966, NaN, NaN, NaN, 0.0347922, "- N/A -   "
28.13, 1022.3, 0.047041, NaN, NaN, NaN, 0.03112983, "- N/A -   "
28.21, 1026, 0.0471826, NaN, NaN, NaN, 0.0262467, "- N/A -   "
28.29, 1029.099, 0.0473103, NaN, NaN, NaN, 0.0286883, "- N/A -   "
28.37, 1032.08, 0.0474325, NaN, NaN, NaN, 0.0347922, "- N/A -   "
28.45, 1034.94, 0.0475491, NaN, NaN, NaN, 0.04089605, "- N/A -   "
28.53, 1037.92, 0.0476741, NaN, NaN, NaN, 0.04577916, "- N/A -   "
28.61, 1041.382, 0.04780178, NaN, NaN, NaN, 0.04699994, "- N/A -   "
28.69, 1045.198, 0.0479517, NaN, NaN, NaN, 0.0396753, "- N/A -   "
28.77, 1048.89, 0.0481044, NaN, NaN, NaN, 0.03112983, "- N/A -   "
28.85, 1052.35, 0.0482405, NaN, NaN, NaN, 0.03112983, "- N/A -   "
28.93, 1055.45, 0.0483655, NaN, NaN, NaN, 0.0347922, "- N/A -   "
29.01, 1058.55, 0.04849042, NaN, NaN, NaN, 0.0372337, "- N/A -   "
29.09, 1062.13, 0.04862648, NaN, NaN, NaN, 0.03601294, "- N/A -   "
29.17, 1065.11, 0.0487487, NaN, NaN, NaN, 0.04089605, "- N/A -   "
29.25, 1068.21, 0.0488764, NaN, NaN, NaN, 0.0445584, "- N/A -   "
29.33, 1072.03, 0.0490236, NaN, NaN, NaN, 0.0372337, "- N/A -   "
29.41, 1075.85, 0.0491735, NaN, NaN, NaN, 0.0299091, "- N/A -   "
29.49, 1079.3, 0.0493123, NaN, NaN, NaN, 0.0274675, "- N/A -   "
29.57, 1082.52, 0.04943729, NaN, NaN, NaN, 0.03112983, "- N/A -   "
29.65, 1085.74, 0.0495678, NaN, NaN, NaN, 0.0323506, "- N/A -   "
29.73, 1088.725, 0.04969, NaN, NaN, NaN, 0.0372337, "- N/A -   "
29.81, 1091.94, 0.0498177, NaN, NaN, NaN, 0.0396753, "- N/A -   "
29.89, 1095.05, 0.0499454, NaN, NaN, NaN, 0.04211683, "- N/A -   "
29.97, 1098.5, 0.0500815, NaN, NaN, NaN, 0.04089605, "- N/A -   "
30.05, 1102.2, 0.0502259, NaN, NaN, NaN, 0.03601294, "- N/A -   "
30.13, 1105.54, 0.0503619, NaN, NaN, NaN, 0.03601294, "- N/A -   "
30.21, 1109, 0.050498, NaN, NaN, NaN, 0.0347922, "- N/A -   "
30.29, 1112.34, 0.05063407, NaN, NaN, NaN, 0.0335714, "- N/A -   "
30.37, 1115.68, 0.05076736, NaN, NaN, NaN, 0.0323506, "- N/A -   "
30.45, 1118.78, 0.0509006, NaN, NaN, NaN, 0.0335714, "- N/A -   "
30.53, 1121.88, 0.0510228, NaN, NaN, NaN, 0.0372337, "- N/A -   "
30.61, 1125.1, 0.05114777, NaN, NaN, NaN, 0.04089605, "- N/A -   "
30.69, 1128.32, 0.0512755, NaN, NaN, NaN, 0.0445584, "- N/A -   "
30.77, 1132.13, 0.05142267, NaN, NaN, NaN, 0.0384545, "- N/A -   "
30.85, 1135.83, 0.05157261, NaN, NaN, NaN, 0.0323506, "- N/A -   "
30.93, 1139.05, 0.05170312, NaN, NaN, NaN, 0.0323506, "- N/A -   "
31.01, 1142.63, 0.0518475, NaN, NaN, NaN, 0.0286883, "- N/A -   "
31.09, 1145.61, 0.05196969, NaN, NaN, NaN, 0.0323506, "- N/A -   "
31.17, 1148.59, 0.0520919, NaN, NaN, NaN, 0.0372337, "- N/A -   "
31.25, 1151.33, 0.0522057, NaN, NaN, NaN, 0.04577916, "- N/A -   "
31.33, 1154.31, 0.05233067, NaN, NaN, NaN, 0.05066227, "- N/A -   "
31.41, 1158.25, 0.05248061, NaN, NaN, NaN, 0.04211683, "- N/A -   "
31.49, 1161.95, 0.0526306, NaN, NaN, NaN, 0.0347922, "- N/A -   "
31.57, 1165.404, 0.0527694, NaN, NaN, NaN, 0.0323506, "- N/A -   "
31.65, 1168.86, 0.05290823, NaN, NaN, NaN, 0.03112983, "- N/A -   "
31.73, 1172.2, 0.05304429, NaN, NaN, NaN, 0.0286883, "- N/A -   "
31.81, 1174.94, 0.0531581, NaN, NaN, NaN, 0.0372337, "- N/A -   "
31.89, 1177.687, 0.0532775, NaN, NaN, NaN, 0.0433376, "- N/A -   "
31.97, 1181.03, 0.0534136, NaN, NaN, NaN, 0.04211683, "- N/A -   "
32.05, 1184.365, 0.0535469, NaN, NaN, NaN, 0.04211683, "- N/A -   "
32.13, 1188.06, 0.0536913, NaN, NaN, NaN, 0.0384545, "- N/A -   "
32.21, 1191.88, 0.0538412, NaN, NaN, NaN, 0.0299091, "- N/A -   "
32.29, 1195.217, 0.05397728, NaN, NaN, NaN, 0.0286883, "- N/A -   "
32.37, 1198.44, 0.05410779, NaN, NaN, NaN, 0.03112983, "- N/A -   "
32.45, 1201.42, 0.05423, NaN, NaN, NaN, 0.03601294, "- N/A -   "
32.53, 1204.638, 0.0543605, NaN, NaN, NaN, 0.03601294, "- N/A -   "
32.61, 1207.5, 0.05447432, NaN, NaN, NaN, 0.0445584, "- N/A -   "
32.69, 1210.48, 0.0545993, NaN, NaN, NaN, 0.0482207, "- N/A -   "
32.77, 1214.42, 0.0547492, NaN, NaN, NaN, 0.04089605, "- N/A -   "
32.85, 1218.23, 0.05490194, NaN, NaN, NaN, 0.0335714, "- N/A -   "
32.93, 1221.33, 0.0550269, NaN, NaN, NaN, 0.03601294, "- N/A -   "
33.01, 1224.67, 0.05516295, NaN, NaN, NaN, 0.0347922, "- N/A -   "
33.09, 1228.25, 0.0553046, NaN, NaN, NaN, 0.03112983, "- N/A -   "
33.17, 1231.35, 0.0554323, NaN, NaN, NaN, 0.0347922, "- N/A -   "
33.25, 1234.21, 0.0555545, NaN, NaN, NaN, 0.0396753, "- N/A -   "
33.33, 1237.55, 0.05568776, NaN, NaN, NaN, 0.0384545, "- N/A -   "
33.41, 1240.89, 0.0558183, NaN, NaN, NaN, 0.0396753, "- N/A -   "
33.49, 1244.35, 0.0559571, NaN, NaN, NaN, 0.0372337, "- N/A -   "
33.57, 1247.69, 0.0560932, NaN, NaN, NaN, 0.03601294, "- N/A -   "
33.65, 1251.27, 0.0562376, NaN, NaN, NaN, 0.03112983, "- N/A -   "
33.73, 1254.6, 0.05636806, NaN, NaN, NaN, 0.0323506, "- N/A -   "
33.81, 1257.82, 0.05649857, NaN, NaN, NaN, 0.0347922, "- N/A -   "
33.89, 1260.92, 0.05662908, NaN, NaN, NaN, 0.0347922, "- N/A -   "
33.97, 1264.03, 0.056754, NaN, NaN, NaN, 0.0384545, "- N/A -   "
34.05, 1267.01, 0.05687621, NaN, NaN, NaN, 0.0433376, "- N/A -   "
34.13, 1270.23, 0.05700394, NaN, NaN, NaN, 0.04577916, "- N/A -   "
34.21, 1274.281, 0.0571622, NaN, NaN, NaN, 0.03601294, "- N/A -   "
34.29, 1277.74, 0.0572983, NaN, NaN, NaN, 0.0335714, "- N/A -   "
34.37, 1280.96, 0.05743156, NaN, NaN, NaN, 0.0335714, "- N/A -   "
34.45, 1284.656, 0.05757595, NaN, NaN, NaN, 0.0286883, "- N/A -   "
34.53, 1287.88, 0.0577065, NaN, NaN, NaN, 0.03112983, "- N/A -   "
34.61, 1290.62, 0.0578203, NaN, NaN, NaN, 0.0384545, "- N/A -   "
34.69, 1293.6, 0.0579425, NaN, NaN, NaN, 0.0445584, "- N/A -   "
34.77, 1296.939, 0.0580785, NaN, NaN, NaN, 0.0433376, "- N/A -   "
34.85, 1300.755, 0.05822849, NaN, NaN, NaN, 0.0347922, "- N/A -   "
34.93, 1304.094, 0.0583645, NaN, NaN, NaN, 0.0335714, "- N/A -   "
35.01, 1307.79, 0.05850894, NaN, NaN, NaN, 0.0299091, "- N/A -   "
35.09, 1311.25, 0.0586478, NaN, NaN, NaN, 0.0274675, "- N/A -   "
35.17, 1314.23, 0.0587672, NaN, NaN, NaN, 0.0335714, "- N/A -   "
35.25, 1317.09, 0.05888658, NaN, NaN, NaN, 0.0396753, "- N/A -   "
35.33, 1320.07, 0.0590088, NaN, NaN, NaN, 0.0445584, "- N/A -   "
35.41, 1323.41, 0.05914204, NaN, NaN, NaN, 0.04577916, "- N/A -   "
35.49, 1326.752, 0.05927532, NaN, NaN, NaN, 0.0445584, "- N/A -   "
35.57, 1330.69, 0.05943082, NaN, NaN, NaN, 0.0347922, "- N/A -   "
35.65, 1334.384, 0.0595808, NaN, NaN, NaN, 0.0286883, "- N/A -   "
35.73, 1337.48, 0.0597029, NaN, NaN, NaN, 0.0323506, "- N/A -   "
35.81, 1340.59, 0.05982512, NaN, NaN, NaN, 0.0372337, "- N/A -   "
35.89, 1343.92, 0.0599612, NaN, NaN, NaN, 0.03601294, "- N/A -   "
35.97, 1346.91, 0.0600834, NaN, NaN, NaN, 0.04089605, "- N/A -   "
36.05, 1349.89, 0.06020831, NaN, NaN, NaN, 0.0445584, "- N/A -   "
36.13, 1353.46, 0.0603499, NaN, NaN, NaN, 0.04211683, "- N/A -   "
36.21, 1357.64, 0.0605054, NaN, NaN, NaN, 0.03112983, "- N/A -   "
36.29, 1360.858, 0.0606359, NaN, NaN, NaN, 0.0323506, "- N/A -   "
36.37, 1363.96, 0.06076088, NaN, NaN, NaN, 0.03601294, "- N/A -   "
36.45, 1367.42, 0.06089972, NaN, NaN, NaN, 0.0335714, "- N/A -   "
36.53, 1370.76, 0.0610358, NaN, NaN, NaN, 0.0323506, "- N/A -   "
36.61, 1373.74, 0.06115518, NaN, NaN, NaN, 0.0384545, "- N/A -   "
36.69, 1376.72, 0.06128014, NaN, NaN, NaN, 0.0433376, "- N/A -   "
36.77, 1380.42, 0.0614218, NaN, NaN, NaN, 0.0384545, "- N/A -   "
36.85, 1383.64, 0.06155226, NaN, NaN, NaN, 0.0396753, "- N/A -   "
36.93, 1387.09, 0.0616911, NaN, NaN, NaN, 0.0372337, "- N/A -   "
37.01, 1390.671, 0.06183271, NaN, NaN, NaN, 0.0335714, "- N/A -   "
37.09, 1394.13, 0.06196877, NaN, NaN, NaN, 0.0323506, "- N/A -   "
37.17, 1397.23, 0.0621021, NaN, NaN, NaN, 0.0335714, "- N/A -   "
37.25, 1400.45, 0.06222979, NaN, NaN, NaN, 0.0347922, "- N/A -   "
37.33, 1403.431, 0.0623575, NaN, NaN, NaN, 0.0372337, "- N/A -   "
37.41, 1406.53, 0.0624797, NaN, NaN, NaN, 0.0433376, "- N/A -   "
37.49, 1409.99, 0.06261298, NaN, NaN, NaN, 0.0433376, "- N/A -   "
37.57, 1413.45, 0.0627518, NaN, NaN, NaN, 0.0396753, "- N/A -   "
37.606, 1415.24, 0.06282123, NaN, NaN, NaN, 0.03601294, "- N/A -   "