File: 2_Tensile_Data/Hamel_ForceTest_Bolt2_Test1.csv
Time, Load (lb), Position (in), AxialStrain (in), TransverseStrain (in), Auxiliary (), Control Out (V), Stress (psi)
0.0,1.17947,0.0, NaN, NaN, NaN,0.4315449," ""- N/A -   """
0.00999999,1.41537,0.000166606, NaN, NaN, NaN,0.4315449," ""- N/A -   """
0.02,1.65126,0.000327658, NaN, NaN, NaN,0.433986," ""- N/A -   """
0.03,1.65126,0.0004942621, NaN, NaN, NaN,0.433986," ""- N/A -   """
0.04,2.005107,0.00066642, NaN, NaN, NaN,0.4315449," ""- N/A -   """
0.05,2.12305,0.000835802, NaN, NaN, NaN,0.4303241," ""- N/A -   """
0.06,2.476897,0.001016292, NaN, NaN, NaN,0.4303241," ""- N/A -   """
0.07,2.712792,0.00117457, NaN, NaN, NaN,0.4303241," ""- N/A -   """
0.08,3.06663,0.00133284, NaN, NaN, NaN,0.435207," ""- N/A -   """
0.09,3.42048,0.00149389, NaN, NaN, NaN,0.436428," ""- N/A -   """
0.1,3.774319,0.0016605, NaN, NaN, NaN,0.433986," ""- N/A -   """
0.11,4.12816,0.00183266, NaN, NaN, NaN,0.4315449," ""- N/A -   """
0.12,4.59995,0.002004815, NaN, NaN, NaN,0.429103," ""- N/A -   """
0.13,5.071741,0.00217697, NaN, NaN, NaN,0.4266618," ""- N/A -   """
0.14,5.54353,0.00233803, NaN, NaN, NaN,0.429103," ""- N/A -   """
0.15,6.01532,0.00249908, NaN, NaN, NaN,0.4315449," ""- N/A -   """
0.16,6.369163,0.00266291, NaN, NaN, NaN,0.432766," ""- N/A -   """
0.17,6.84095,0.00283784, NaN, NaN, NaN,0.429103," ""- N/A -   """
0.18,7.1948,0.00300445, NaN, NaN, NaN,0.429103," ""- N/A -   """
0.19,7.784533,0.00317105, NaN, NaN, NaN,0.429103," ""- N/A -   """
0.2,8.138375,0.003337656, NaN, NaN, NaN,0.429103," ""- N/A -   """
0.21,8.492218,0.003498708, NaN, NaN, NaN,0.4315449," ""- N/A -   """
0.22,8.846061,0.00365976, NaN, NaN, NaN,0.433986," ""- N/A -   """
0.23,9.199903,0.00382636, NaN, NaN, NaN,0.433986," ""- N/A -   """
0.24,9.671693,0.00399297, NaN, NaN, NaN,0.433986," ""- N/A -   """
0.25,10.1435,0.004162352, NaN, NaN, NaN,0.432766," ""- N/A -   """
0.26,10.4973,0.00433451, NaN, NaN, NaN,0.4303241," ""- N/A -   """
0.27,10.9691,0.004515, NaN, NaN, NaN,0.427883," ""- N/A -   """
0.28,11.4409,0.004678827, NaN, NaN, NaN,0.429103," ""- N/A -   """
0.29,11.9127,0.004834325, NaN, NaN, NaN,0.4303241," ""- N/A -   """
0.3,12.3845,0.004995377, NaN, NaN, NaN,0.432766," ""- N/A -   """
0.31,12.9742,0.00516198, NaN, NaN, NaN,0.432766," ""- N/A -   """
0.32,13.3281,0.00533136, NaN, NaN, NaN,0.4315449," ""- N/A -   """
0.33,13.9178,0.005503523, NaN, NaN, NaN,0.429103," ""- N/A -   """
0.34,14.3896,0.005667351, NaN, NaN, NaN,0.4315449," ""- N/A -   """
0.35,14.9793,0.00582563, NaN, NaN, NaN,0.435207," ""- N/A -   """
0.36,15.4511,0.00599223, NaN, NaN, NaN,0.43887," ""- N/A -   """
0.37,16.1588,0.00616161, NaN, NaN, NaN,0.437649," ""- N/A -   """
0.38,16.86649,0.00632544, NaN, NaN, NaN,0.435207," ""- N/A -   """
0.39,17.6921,0.00650315, NaN, NaN, NaN,0.4303241," ""- N/A -   """
0.4,18.2819,0.00667254, NaN, NaN, NaN,0.429103," ""- N/A -   """
0.41,18.9895,0.00683914, NaN, NaN, NaN,0.429103," ""- N/A -   """
0.42,19.6972,0.007000192, NaN, NaN, NaN,0.4315449," ""- N/A -   """
0.43,20.4049,0.007161244, NaN, NaN, NaN,0.433986," ""- N/A -   """
0.439,21.1126,0.00732229, NaN, NaN, NaN,0.436428," ""- N/A -   """
0.449,21.93823,0.00749723, NaN, NaN, NaN,0.432766," ""- N/A -   """
0.46,22.7639,0.00767217, NaN, NaN, NaN,0.432766," ""- N/A -   """
0.47,23.5895,0.007841548, NaN, NaN, NaN,0.4315449," ""- N/A -   """
0.48,24.1792,0.007997046, NaN, NaN, NaN,0.432766," ""- N/A -   """
0.49,25.0049,0.008158097, NaN, NaN, NaN,0.435207," ""- N/A -   """
0.5,25.8305,0.00831637, NaN, NaN, NaN,0.43887," ""- N/A -   """
0.51,26.5382,0.008485755, NaN, NaN, NaN,0.437649," ""- N/A -   """
0.52,27.4818,0.008657913, NaN, NaN, NaN,0.435207," ""- N/A -   """
0.53,28.1894,0.008830071, NaN, NaN, NaN,0.432766," ""- N/A -   """
0.54,29.0151,0.008999453, NaN, NaN, NaN,0.4315449," ""- N/A -   """
0.55,29.84071,0.009168835, NaN, NaN, NaN,0.4303241," ""- N/A -   """
0.56,30.6663,0.009329887, NaN, NaN, NaN,0.432766," ""- N/A -   """
0.57,31.492,0.009496491, NaN, NaN, NaN,0.432766," ""- N/A -   """
0.58,32.1997,0.00966032, NaN, NaN, NaN,0.433986," ""- N/A -   """
0.59,33.02529,0.009832479, NaN, NaN, NaN,0.4303241," ""- N/A -   """
0.6,33.9689,0.009999084, NaN, NaN, NaN,0.4303241," ""- N/A -   """
0.61,34.7945,0.0101657, NaN, NaN, NaN,0.4303241," ""- N/A -   """
0.62,35.7381,0.0103323, NaN, NaN, NaN,0.4303241," ""- N/A -   """
0.63,36.44577,0.01049057, NaN, NaN, NaN,0.433986," ""- N/A -   """
0.64,37.2714,0.0106627, NaN, NaN, NaN,0.436428," ""- N/A -   """
0.65,38.215,0.0108266, NaN, NaN, NaN,0.432766," ""- N/A -   """
0.66,39.04061,0.0109959, NaN, NaN, NaN,0.4315449," ""- N/A -   """
0.67,39.8662,0.0111709, NaN, NaN, NaN,0.427883," ""- N/A -   """
0.68,40.8098,0.0113403, NaN, NaN, NaN,0.4266618," ""- N/A -   """
0.69,41.7534,0.0115013, NaN, NaN, NaN,0.429103," ""- N/A -   """
0.7,42.579,0.0116624, NaN, NaN, NaN,0.4315449," ""- N/A -   """
0.71,43.40467,0.0118234, NaN, NaN, NaN,0.433986," ""- N/A -   """
0.72,44.2303,0.01199, NaN, NaN, NaN,0.433986," ""- N/A -   """
0.73,45.05593,0.0121594, NaN, NaN, NaN,0.432766," ""- N/A -   """
0.74,46.11746,0.0123316, NaN, NaN, NaN,0.4303241," ""- N/A -   """
0.75,47.061,0.0125065, NaN, NaN, NaN,0.4303241," ""- N/A -   """
0.76,47.8867,0.0126675, NaN, NaN, NaN,0.432766," ""- N/A -   """
0.77,48.83025,0.0128203, NaN, NaN, NaN,0.435207," ""- N/A -   """
0.78,49.6559,0.01298687, NaN, NaN, NaN,0.435207," ""- N/A -   """
0.79,50.5995,0.0131563, NaN, NaN, NaN,0.433986," ""- N/A -   """
0.8,51.543,0.0133284, NaN, NaN, NaN,0.4315449," ""- N/A -   """
0.81,52.48662,0.0135033, NaN, NaN, NaN,0.427883," ""- N/A -   """
0.82,53.4302,0.01366995, NaN, NaN, NaN,0.427883," ""- N/A -   """
0.83,54.2558,0.0138227, NaN, NaN, NaN,0.433986," ""- N/A -   """
0.84,55.1994,0.0139893, NaN, NaN, NaN,0.433986," ""- N/A -   """
0.85,56.02505,0.014167, NaN, NaN, NaN,0.432766," ""- N/A -   """
0.86,56.9686,0.0143308, NaN, NaN, NaN,0.433986," ""- N/A -   """
0.87,57.79426,0.0144919, NaN, NaN, NaN,0.432766," ""- N/A -   """
0.88,58.6199,0.01466125, NaN, NaN, NaN,0.4315449," ""- N/A -   """
0.89,59.5635,0.0148251, NaN, NaN, NaN,0.432766," ""- N/A -   """
0.9,60.3891,0.0149889, NaN, NaN, NaN,0.433986," ""- N/A -   """
0.91,61.09679,0.0151555, NaN, NaN, NaN,0.433986," ""- N/A -   """
0.92,62.1583,0.01531934, NaN, NaN, NaN,0.435207," ""- N/A -   """
0.93,62.98395,0.0154943, NaN, NaN, NaN,0.435207," ""- N/A -   """
0.94,63.92753,0.0156692, NaN, NaN, NaN,0.432766," ""- N/A -   """
0.95,64.75317,0.015833, NaN, NaN, NaN,0.429103," ""- N/A -   """
0.96,65.5788,0.0159996, NaN, NaN, NaN,0.429103," ""- N/A -   """
0.97,66.40443,0.01615792, NaN, NaN, NaN,0.432766," ""- N/A -   """
0.98,67.23006,0.0163217, NaN, NaN, NaN,0.433986," ""- N/A -   """
0.99,68.17364,0.0164856, NaN, NaN, NaN,0.435207," ""- N/A -   """
1.0,68.9993,0.0166577, NaN, NaN, NaN,0.432766," ""- N/A -   """
1.01,69.8249,0.0168271, NaN, NaN, NaN,0.4315449," ""- N/A -   """
1.02,70.7685,0.0169937, NaN, NaN, NaN,0.4315449," ""- N/A -   """
1.03,71.59412,0.0171603, NaN, NaN, NaN,0.4315449," ""- N/A -   """
1.04,72.41975,0.0173186, NaN, NaN, NaN,0.435207," ""- N/A -   """
1.05,73.2454,0.01748243, NaN, NaN, NaN,0.436428," ""- N/A -   """
1.06,74.189,0.017649, NaN, NaN, NaN,0.436428," ""- N/A -   """
1.07,75.13254,0.0178267, NaN, NaN, NaN,0.4315449," ""- N/A -   """
1.08,75.95817,0.0179989, NaN, NaN, NaN,0.429103," ""- N/A -   """
1.09,76.90175,0.01816829, NaN, NaN, NaN,0.427883," ""- N/A -   """
1.1,77.6094,0.0183293, NaN, NaN, NaN,0.4303241," ""- N/A -   """
1.11,78.4351,0.0184848, NaN, NaN, NaN,0.435207," ""- N/A -   """
1.12,79.37865,0.0186487, NaN, NaN, NaN,0.436428," ""- N/A -   """
1.13,80.32223,0.0188292, NaN, NaN, NaN,0.433986," ""- N/A -   """
1.14,81.26581,0.0189985, NaN, NaN, NaN,0.432766," ""- N/A -   """
1.15,82.09144,0.0191707, NaN, NaN, NaN,0.4303241," ""- N/A -   """
1.16,83.15297,0.0193345, NaN, NaN, NaN,0.4315449," ""- N/A -   """
1.17,84.09654,0.0194872, NaN, NaN, NaN,0.433986," ""- N/A -   """
1.18,85.15807,0.0196483, NaN, NaN, NaN,0.436428," ""- N/A -   """
1.19,86.33755,0.0198205, NaN, NaN, NaN,0.433986," ""- N/A -   """
1.2,87.51702,0.0199898, NaN, NaN, NaN,0.432766," ""- N/A -   """
1.21,88.6965,0.02015922, NaN, NaN, NaN,0.4315449," ""- N/A -   """
1.22,89.99392,0.0203369, NaN, NaN, NaN,0.4303241," ""- N/A -   """
1.23,91.05545,0.0205035, NaN, NaN, NaN,0.4303241," ""- N/A -   """
1.24,92.35287,0.02066181, NaN, NaN, NaN,0.435207," ""- N/A -   """
1.25,93.53234,0.02081731, NaN, NaN, NaN,0.436428," ""- N/A -   """
1.26,94.7118,0.0209895, NaN, NaN, NaN,0.433986," ""- N/A -   """
1.27,96.12719,0.0211533, NaN, NaN, NaN,0.435207," ""- N/A -   """
1.28,97.30666,0.0213255, NaN, NaN, NaN,0.432766," ""- N/A -   """
1.29,98.4861,0.0214976, NaN, NaN, NaN,0.4303241," ""- N/A -   """
1.3,99.54767,0.021667, NaN, NaN, NaN,0.429103," ""- N/A -   """
1.31,100.845,0.0218225, NaN, NaN, NaN,0.433986," ""- N/A -   """
1.32,102.025,0.0219891, NaN, NaN, NaN,0.437649," ""- N/A -   """
1.33,103.322,0.0221557, NaN, NaN, NaN,0.437649," ""- N/A -   """
1.34,104.619,0.0223195, NaN, NaN, NaN,0.435207," ""- N/A -   """
1.35,105.917,0.02249169, NaN, NaN, NaN,0.432766," ""- N/A -   """
1.36,107.922,0.0226694, NaN, NaN, NaN,0.427883," ""- N/A -   """
1.37,110.399,0.0228332, NaN, NaN, NaN,0.429103," ""- N/A -   """
1.38,112.876,0.0229915, NaN, NaN, NaN,0.432766," ""- N/A -   """
1.39,115.353,0.0231526, NaN, NaN, NaN,0.435207," ""- N/A -   """
1.4,118.301,0.0233164, NaN, NaN, NaN,0.436428," ""- N/A -   """
1.41,121.368,0.0234969, NaN, NaN, NaN,0.436428," ""- N/A -   """
1.42,124.67,0.0236663, NaN, NaN, NaN,0.4315449," ""- N/A -   """
1.43,127.737,0.0238356, NaN, NaN, NaN,0.4303241," ""- N/A -   """
1.44,130.804,0.02398836, NaN, NaN, NaN,0.432766," ""- N/A -   """
1.45,133.752,0.0241466, NaN, NaN, NaN,0.436428," ""- N/A -   """
1.46,136.819,0.0243105, NaN, NaN, NaN,0.437649," ""- N/A -   """
1.47,140.1216,0.0244798, NaN, NaN, NaN,0.436428," ""- N/A -   """
1.48,143.542,0.0246492, NaN, NaN, NaN,0.435207," ""- N/A -   """
1.49,146.8446,0.0248214, NaN, NaN, NaN,0.432766," ""- N/A -   """
1.5,150.265,0.02498799, NaN, NaN, NaN,0.432766," ""- N/A -   """
1.51,153.568,0.0251574, NaN, NaN, NaN,0.435207," ""- N/A -   """
1.52,156.87,0.0253184, NaN, NaN, NaN,0.436428," ""- N/A -   """
1.53,160.2906,0.0254795, NaN, NaN, NaN,0.436428," ""- N/A -   """
1.54,163.711,0.0256461, NaN, NaN, NaN,0.436428," ""- N/A -   """
1.55,167.25,0.0258155, NaN, NaN, NaN,0.435207," ""- N/A -   """
1.56,170.906,0.0259848, NaN, NaN, NaN,0.433986," ""- N/A -   """
1.57,174.562,0.0261514, NaN, NaN, NaN,0.433986," ""- N/A -   """
1.58,177.983,0.0263153, NaN, NaN, NaN,0.435207," ""- N/A -   """
1.59,181.521,0.0264791, NaN, NaN, NaN,0.436428," ""- N/A -   """
1.6,185.413,0.0266429, NaN, NaN, NaN,0.437649," ""- N/A -   """
1.61,189.0698,0.0268151, NaN, NaN, NaN,0.43887," ""- N/A -   """
1.62,192.962,0.0269845, NaN, NaN, NaN,0.437649," ""- N/A -   """
1.63,196.736,0.02715108, NaN, NaN, NaN,0.433986," ""- N/A -   """
1.64,200.7466,0.0273177, NaN, NaN, NaN,0.433986," ""- N/A -   """
1.65,204.403,0.0274815, NaN, NaN, NaN,0.435207," ""- N/A -   """
1.66,207.941,0.0276426, NaN, NaN, NaN,0.437649," ""- N/A -   """
1.67,211.9516,0.0278064, NaN, NaN, NaN,0.43887," ""- N/A -   """
1.68,215.962,0.0279702, NaN, NaN, NaN,0.44009," ""- N/A -   """
1.69,220.09,0.02814238, NaN, NaN, NaN,0.437649," ""- N/A -   """
1.7,224.218,0.02831454, NaN, NaN, NaN,0.436428," ""- N/A -   """
1.71,228.228,0.0284839, NaN, NaN, NaN,0.435207," ""- N/A -   """
1.72,232.003,0.0286422, NaN, NaN, NaN,0.43887," ""- N/A -   """
1.73,235.777,0.0288032, NaN, NaN, NaN,0.441311," ""- N/A -   """
1.74,239.551,0.0289726, NaN, NaN, NaN,0.44009," ""- N/A -   """
1.75,243.7961,0.0291392, NaN, NaN, NaN,0.44009," ""- N/A -   """
1.76,247.92,0.02931417, NaN, NaN, NaN,0.436428," ""- N/A -   """
1.77,251.926,0.0294836, NaN, NaN, NaN,0.435207," ""- N/A -   """
1.78,255.579,0.0296446, NaN, NaN, NaN,0.437649," ""- N/A -   """
1.79,259.231,0.02980288, NaN, NaN, NaN,0.441311," ""- N/A -   """
1.8,263.2374,0.0299695, NaN, NaN, NaN,0.441311," ""- N/A -   """
1.81,267.126,0.0301361, NaN, NaN, NaN,0.441311," ""- N/A -   """
1.82,271.014,0.0303055, NaN, NaN, NaN,0.44009," ""- N/A -   """
1.83,275.138,0.0304749, NaN, NaN, NaN,0.43887," ""- N/A -   """
1.84,279.0261,0.03064701, NaN, NaN, NaN,0.436428," ""- N/A -   """
1.85,282.914,0.0308081, NaN, NaN, NaN,0.43887," ""- N/A -   """
1.86,286.567,0.0309691, NaN, NaN, NaN,0.441311," ""- N/A -   """
1.87,290.4552,0.0311329, NaN, NaN, NaN,0.442532," ""- N/A -   """
1.88,294.4613,0.03130232, NaN, NaN, NaN,0.441311," ""- N/A -   """
1.89,298.467,0.0314717, NaN, NaN, NaN,0.44009," ""- N/A -   """
1.9,302.356,0.03164942, NaN, NaN, NaN,0.437649," ""- N/A -   """
1.91,306.362,0.03181602, NaN, NaN, NaN,0.436428," ""- N/A -   """
1.92,309.7787,0.0319743, NaN, NaN, NaN,0.437649," ""- N/A -   """
1.93,313.549,0.0321326, NaN, NaN, NaN,0.441311," ""- N/A -   """
1.94,317.4374,0.0322992, NaN, NaN, NaN,0.441311," ""- N/A -   """
1.95,321.443,0.0324658, NaN, NaN, NaN,0.441311," ""- N/A -   """
1.96,325.0961,0.0326379, NaN, NaN, NaN,0.43887," ""- N/A -   """
1.97,329.102,0.03280177, NaN, NaN, NaN,0.44009," ""- N/A -   """
1.98,332.873,0.03297115, NaN, NaN, NaN,0.43887," ""- N/A -   """
1.99,336.8787,0.0331405, NaN, NaN, NaN,0.44009," ""- N/A -   """
2.0,340.6491,0.0333044, NaN, NaN, NaN,0.442532," ""- N/A -   """
2.01,344.4196,0.033471, NaN, NaN, NaN,0.442532," ""- N/A -   """
2.02,348.3078,0.033632, NaN, NaN, NaN,0.441311," ""- N/A -   """
2.03,352.078,0.03380418, NaN, NaN, NaN,0.43887," ""- N/A -   """
2.04,356.202,0.03397356, NaN, NaN, NaN,0.437649," ""- N/A -   """
2.05,359.9726,0.0341457, NaN, NaN, NaN,0.435207," ""- N/A -   """
2.06,363.3896,0.03430677, NaN, NaN, NaN,0.437649," ""- N/A -   """
2.07,367.042,0.0344706, NaN, NaN, NaN,0.43887," ""- N/A -   """
2.08,371.1661,0.03463998, NaN, NaN, NaN,0.441311," ""- N/A -   """
2.09,375.172,0.0348038, NaN, NaN, NaN,0.43887," ""- N/A -   """
2.1,379.296,0.03497874, NaN, NaN, NaN,0.435207," ""- N/A -   """
2.11,383.184,0.0351481, NaN, NaN, NaN,0.433986," ""- N/A -   """
2.12,386.955,0.035312, NaN, NaN, NaN,0.435207," ""- N/A -   """
2.13,390.725,0.03547023, NaN, NaN, NaN,0.43887," ""- N/A -   """
2.14,394.613,0.03563128, NaN, NaN, NaN,0.441311," ""- N/A -   """
2.15,398.62,0.0357979, NaN, NaN, NaN,0.442532," ""- N/A -   """
2.16,402.626,0.03597, NaN, NaN, NaN,0.44009," ""- N/A -   """
2.17,406.75,0.0361422, NaN, NaN, NaN,0.437649," ""- N/A -   """
2.18,410.9913,0.0363199, NaN, NaN, NaN,0.436428," ""- N/A -   """
2.19,414.88,0.0364837, NaN, NaN, NaN,0.437649," ""- N/A -   """
2.2,418.65,0.03664202, NaN, NaN, NaN,0.441311," ""- N/A -   """
2.21,422.7739,0.0368114, NaN, NaN, NaN,0.44009," ""- N/A -   """
2.22,426.78,0.0369725, NaN, NaN, NaN,0.43887," ""- N/A -   """
2.23,430.786,0.0371391, NaN, NaN, NaN,0.43887," ""- N/A -   """
2.24,434.91,0.0373057, NaN, NaN, NaN,0.43887," ""- N/A -   """
2.25,438.9161,0.0374723, NaN, NaN, NaN,0.43887," ""- N/A -   """
2.26,442.687,0.0376389, NaN, NaN, NaN,0.43887," ""- N/A -   """
2.27,446.928,0.0378027, NaN, NaN, NaN,0.44009," ""- N/A -   """
2.28,451.17,0.0379693, NaN, NaN, NaN,0.44009," ""- N/A -   """
2.29,455.1761,0.0381359, NaN, NaN, NaN,0.44009," ""- N/A -   """
2.3,459.182,0.03830807, NaN, NaN, NaN,0.437649," ""- N/A -   """
2.31,463.188,0.0384775, NaN, NaN, NaN,0.436428," ""- N/A -   """
2.32,467.548,0.0386468, NaN, NaN, NaN,0.435207," ""- N/A -   """
2.33,471.5539,0.03881344, NaN, NaN, NaN,0.435207," ""- N/A -   """
2.34,475.442,0.0389717, NaN, NaN, NaN,0.43887," ""- N/A -   """
2.35,479.2126,0.03913554, NaN, NaN, NaN,0.44009," ""- N/A -   """
2.36,483.337,0.03930492, NaN, NaN, NaN,0.43887," ""- N/A -   """
2.37,487.578,0.0394715, NaN, NaN, NaN,0.43887," ""- N/A -   """
2.38,491.82,0.0396465, NaN, NaN, NaN,0.435207," ""- N/A -   """
2.39,495.708,0.0398186, NaN, NaN, NaN,0.436428," ""- N/A -   """
2.4,499.361,0.0399713, NaN, NaN, NaN,0.43887," ""- N/A -   """
2.41,503.2491,0.0401324, NaN, NaN, NaN,0.441311," ""- N/A -   """
2.42,507.373,0.040299, NaN, NaN, NaN,0.441311," ""- N/A -   """
2.43,511.379,0.04046561, NaN, NaN, NaN,0.441311," ""- N/A -   """
2.44,515.511,0.0406405, NaN, NaN, NaN,0.437649," ""- N/A -   """
2.45,519.414,0.0408127, NaN, NaN, NaN,0.435207," ""- N/A -   """
2.46,523.3173,0.04097375, NaN, NaN, NaN,0.437649," ""- N/A -   """
2.47,527.2206,0.0411348, NaN, NaN, NaN,0.44009," ""- N/A -   """
2.48,530.887,0.0412931, NaN, NaN, NaN,0.443753," ""- N/A -   """
2.49,534.672,0.0414625, NaN, NaN, NaN,0.442532," ""- N/A -   """
2.5,538.8121,0.0416318, NaN, NaN, NaN,0.441311," ""- N/A -   """
2.51,542.8336,0.041804, NaN, NaN, NaN,0.43887," ""- N/A -   """
2.52,546.9735,0.04197338, NaN, NaN, NaN,0.437649," ""- N/A -   """
2.53,550.6402,0.04214, NaN, NaN, NaN,0.437649," ""- N/A -   """
2.54,554.3069,0.04229826, NaN, NaN, NaN,0.441311," ""- N/A -   """
2.55,558.092,0.0424621, NaN, NaN, NaN,0.442532," ""- N/A -   """
2.56,562.2317,0.0426343, NaN, NaN, NaN,0.44009," ""- N/A -   """
2.57,566.135,0.042812, NaN, NaN, NaN,0.43887," ""- N/A -   """
2.58,570.038,0.04298412, NaN, NaN, NaN,0.436428," ""- N/A -   """
2.59,574.06,0.04314517, NaN, NaN, NaN,0.435207," ""- N/A -   """
2.6,577.8448,0.04331178, NaN, NaN, NaN,0.437649," ""- N/A -   """
2.61,581.63,0.0434756, NaN, NaN, NaN,0.43887," ""- N/A -   """
[...]
21.5,-0.94358,0.358204, NaN, NaN, NaN,0.429103," ""- N/A -   """
21.51,-1.06153,0.358356, NaN, NaN, NaN,0.4315449," ""- N/A -   """
21.52,-0.94358,0.3585203, NaN, NaN, NaN,0.432766," ""- N/A -   """
21.53,-1.06153,0.358679, NaN, NaN, NaN,0.436428," ""- N/A -   """
21.54,-1.06153,0.3588452, NaN, NaN, NaN,0.437649," ""- N/A -   """
21.55,-1.06153,0.3590229, NaN, NaN, NaN,0.432766," ""- N/A -   """
21.56,-1.06153,0.359195, NaN, NaN, NaN,0.4303241," ""- N/A -   """
21.57,-1.06153,0.359376, NaN, NaN, NaN,0.427883," ""- N/A -   """
21.58,-1.06153,0.359537, NaN, NaN, NaN,0.429103," ""- N/A -   """
21.59,-0.94358,0.359695, NaN, NaN, NaN,0.432766," ""- N/A -   """
21.6,-1.06153,0.35985, NaN, NaN, NaN,0.435207," ""- N/A -   """
21.61,-0.94358,0.36002, NaN, NaN, NaN,0.433986," ""- N/A -   """
21.62,-0.94358,0.3601891, NaN, NaN, NaN,0.432766," ""- N/A -   """
21.63,-1.06153,0.3603585, NaN, NaN, NaN,0.4315449," ""- N/A -   """
21.64,-0.94358,0.360525, NaN, NaN, NaN,0.4315449," ""- N/A -   """
21.65,-1.06153,0.360686, NaN, NaN, NaN,0.433986," ""- N/A -   """
21.66,-0.94358,0.3608472, NaN, NaN, NaN,0.436428," ""- N/A -   """
21.67,-0.94358,0.361028, NaN, NaN, NaN,0.433986," ""- N/A -   """
21.68,-1.06153,0.3612, NaN, NaN, NaN,0.432766," ""- N/A -   """
21.69,-0.94358,0.361372, NaN, NaN, NaN,0.4303241," ""- N/A -   """
21.7,-0.94358,0.361533, NaN, NaN, NaN,0.427883," ""- N/A -   """
21.71,-0.94358,0.3616969, NaN, NaN, NaN,0.427883," ""- N/A -   """
21.72,-0.94358,0.361858, NaN, NaN, NaN,0.4303241," ""- N/A -   """
21.73,-1.06153,0.362019, NaN, NaN, NaN,0.432766," ""- N/A -   """
21.74,-0.94358,0.362183, NaN, NaN, NaN,0.433986," ""- N/A -   """
21.75,-0.94358,0.362355, NaN, NaN, NaN,0.4315449," ""- N/A -   """
21.76,-0.94358,0.3625244, NaN, NaN, NaN,0.4303241," ""- N/A -   """
21.77,-0.94358,0.362699, NaN, NaN, NaN,0.4303241," ""- N/A -   """
21.78,-1.06153,0.3628659, NaN, NaN, NaN,0.4303241," ""- N/A -   """
21.79,-0.94358,0.3630214, NaN, NaN, NaN,0.4315449," ""- N/A -   """
21.8,-0.94358,0.363185, NaN, NaN, NaN,0.432766," ""- N/A -   """
21.81,-0.94358,0.363352, NaN, NaN, NaN,0.432766," ""- N/A -   """
21.82,-0.825632,0.363518, NaN, NaN, NaN,0.432766," ""- N/A -   """
21.83,-0.94358,0.3636934, NaN, NaN, NaN,0.429103," ""- N/A -   """
21.84,-0.94358,0.363868, NaN, NaN, NaN,0.425441," ""- N/A -   """
21.85,-1.06153,0.364032, NaN, NaN, NaN,0.4266618," ""- N/A -   """
21.86,-0.94358,0.364202, NaN, NaN, NaN,0.429103," ""- N/A -   """
21.87,-0.94358,0.364368, NaN, NaN, NaN,0.429103," ""- N/A -   """
21.88,-1.06153,0.364532, NaN, NaN, NaN,0.4303241," ""- N/A -   """
21.89,-0.94358,0.364696, NaN, NaN, NaN,0.4315449," ""- N/A -   """
21.9,-0.94358,0.364854, NaN, NaN, NaN,0.4303241," ""- N/A -   """
21.91,-0.825632,0.365018, NaN, NaN, NaN,0.4315449," ""- N/A -   """
21.92,-0.94358,0.365176, NaN, NaN, NaN,0.435207," ""- N/A -   """
21.93,-0.94358,0.36534, NaN, NaN, NaN,0.44009," ""- N/A -   """
21.94,-0.94358,0.365504, NaN, NaN, NaN,0.4535189," ""- N/A -   """
21.95,-0.94358,0.3656871, NaN, NaN, NaN,0.45474," ""- N/A -   """
21.96,-1.06153,0.365862, NaN, NaN, NaN,0.447415," ""- N/A -   """
21.97,-0.94358,0.3660453, NaN, NaN, NaN,0.437649," ""- N/A -   """
21.98,-0.94358,0.36622, NaN, NaN, NaN,0.437649," ""- N/A -   """
21.99,-0.94358,0.366373, NaN, NaN, NaN,0.44009," ""- N/A -   """
22,-1.06153,0.366537, NaN, NaN, NaN,0.441311," ""- N/A -   """
22.01,-0.94358,0.366709, NaN, NaN, NaN,0.43887," ""- N/A -   """
22.02,-1.06153,0.366876, NaN, NaN, NaN,0.437649," ""- N/A -   """
22.03,-0.94358,0.367048, NaN, NaN, NaN,0.435207," ""- N/A -   """
22.04,-1.06153,0.3672171, NaN, NaN, NaN,0.433986," ""- N/A -   """
22.05,-0.94358,0.3673948, NaN, NaN, NaN,0.432766," ""- N/A -   """
22.06,-0.94358,0.367553, NaN, NaN, NaN,0.433986," ""- N/A -   """
22.07,-0.94358,0.367722, NaN, NaN, NaN,0.435207," ""- N/A -   """
22.08,-0.94358,0.3678835, NaN, NaN, NaN,0.435207," ""- N/A -   """
22.09,-0.94358,0.3680529, NaN, NaN, NaN,0.433986," ""- N/A -   """
22.1,-1.06153,0.368225, NaN, NaN, NaN,0.4303241," ""- N/A -   """
22.11,-0.94358,0.368392, NaN, NaN, NaN,0.4303241," ""- N/A -   """
22.12,-0.94358,0.3685638, NaN, NaN, NaN,0.427883," ""- N/A -   """
22.13,-1.06153,0.368725, NaN, NaN, NaN,0.4303241," ""- N/A -   """
22.14,-0.94358,0.3688859, NaN, NaN, NaN,0.432766," ""- N/A -   """
22.15,-0.94358,0.369053, NaN, NaN, NaN,0.432766," ""- N/A -   """
22.16,-1.06153,0.369225, NaN, NaN, NaN,0.433986," ""- N/A -   """
22.17,-0.94358,0.3693996, NaN, NaN, NaN,0.4315449," ""- N/A -   """
22.18,-1.06153,0.3695718, NaN, NaN, NaN,0.427883," ""- N/A -   """
22.19,-0.94358,0.3697245, NaN, NaN, NaN,0.4303241," ""- N/A -   """
22.2,-0.94358,0.369886, NaN, NaN, NaN,0.432766," ""- N/A -   """
22.21,-1.06153,0.370049, NaN, NaN, NaN,0.433986," ""- N/A -   """
22.22,-1.06153,0.370213, NaN, NaN, NaN,0.435207," ""- N/A -   """
22.23,-1.06153,0.370385, NaN, NaN, NaN,0.432766," ""- N/A -   """
22.24,-0.94358,0.370569, NaN, NaN, NaN,0.429103," ""- N/A -   """
22.25,-0.94358,0.370735, NaN, NaN, NaN,0.427883," ""- N/A -   """
22.26,-0.94358,0.3708935, NaN, NaN, NaN,0.4315449," ""- N/A -   """
22.27,-0.94358,0.371049, NaN, NaN, NaN,0.432766," ""- N/A -   """
22.28,-0.94358,0.3712156, NaN, NaN, NaN,0.435207," ""- N/A -   """
22.29,-1.06153,0.371379, NaN, NaN, NaN,0.433986," ""- N/A -   """
22.3,-0.94358,0.371552, NaN, NaN, NaN,0.4315449," ""- N/A -   """
22.31,-0.94358,0.3717182, NaN, NaN, NaN,0.4303241," ""- N/A -   """
22.32,-0.94358,0.3718876, NaN, NaN, NaN,0.429103," ""- N/A -   """
22.33,-0.94358,0.372057, NaN, NaN, NaN,0.432766," ""- N/A -   """
22.34,-0.94358,0.372221, NaN, NaN, NaN,0.432766," ""- N/A -   """
22.35,-0.94358,0.37239, NaN, NaN, NaN,0.4315449," ""- N/A -   """
22.36,-1.06153,0.37256, NaN, NaN, NaN,0.4303241," ""- N/A -   """
22.37,-0.94358,0.372726, NaN, NaN, NaN,0.4303241," ""- N/A -   """
22.38,-1.06153,0.372887, NaN, NaN, NaN,0.429103," ""- N/A -   """
22.39,-0.94358,0.373051, NaN, NaN, NaN,0.4303241," ""- N/A -   """
22.4,-1.06153,0.3732121, NaN, NaN, NaN,0.432766," ""- N/A -   """
22.41,-0.94358,0.3733815, NaN, NaN, NaN,0.4315449," ""- N/A -   """
22.42,-0.94358,0.3735481, NaN, NaN, NaN,0.4315449," ""- N/A -   """
22.43,-0.94358,0.3737147, NaN, NaN, NaN,0.4315449," ""- N/A -   """
22.44,-0.94358,0.373884, NaN, NaN, NaN,0.4303241," ""- N/A -   """
22.45,-0.94358,0.374056, NaN, NaN, NaN,0.432766," ""- N/A -   """
22.46,-1.06153,0.374223, NaN, NaN, NaN,0.432766," ""- N/A -   """
22.47,-0.94358,0.374381, NaN, NaN, NaN,0.435207," ""- N/A -   """
22.48,-1.06153,0.374539, NaN, NaN, NaN,0.436428," ""- N/A -   """
22.49,-0.94358,0.374706, NaN, NaN, NaN,0.436428," ""- N/A -   """
22.5,-0.94358,0.3748726, NaN, NaN, NaN,0.436428," ""- N/A -   """
22.51,-0.94358,0.375045, NaN, NaN, NaN,0.435207," ""- N/A -   """
22.52,-0.94358,0.37522, NaN, NaN, NaN,0.4303241," ""- N/A -   """
22.53,-0.94358,0.3753863, NaN, NaN, NaN,0.4303241," ""- N/A -   """
22.54,-0.94358,0.375547, NaN, NaN, NaN,0.432766," ""- N/A -   """
22.55,-1.06153,0.375711, NaN, NaN, NaN,0.433986," ""- N/A -   """
22.56,-1.06153,0.375875, NaN, NaN, NaN,0.435207," ""- N/A -   """
22.57,-0.94358,0.376047, NaN, NaN, NaN,0.432766," ""- N/A -   """
22.58,-0.825632,0.376225, NaN, NaN, NaN,0.4266618," ""- N/A -   """
22.59,-1.06153,0.3763915, NaN, NaN, NaN,0.4266618," ""- N/A -   """
22.6,-1.06153,0.376555, NaN, NaN, NaN,0.427883," ""- N/A -   """
22.61,-1.06153,0.376714, NaN, NaN, NaN,0.4315449," ""- N/A -   """
22.62,-0.94358,0.3768774, NaN, NaN, NaN,0.432766," ""- N/A -   """
22.63,-1.06153,0.37705, NaN, NaN, NaN,0.4303241," ""- N/A -   """
22.64,-0.825632,0.3772245, NaN, NaN, NaN,0.4303241," ""- N/A -   """
22.65,-0.94358,0.377397, NaN, NaN, NaN,0.427883," ""- N/A -   """
22.66,-0.94358,0.377563, NaN, NaN, NaN,0.4266618," ""- N/A -   """
22.67,-0.94358,0.377722, NaN, NaN, NaN,0.4266618," ""- N/A -   """
22.68,-0.94358,0.377877, NaN, NaN, NaN,0.4315449," ""- N/A -   """
22.69,-0.94358,0.378046, NaN, NaN, NaN,0.4303241," ""- N/A -   """
22.7,-0.94358,0.378213, NaN, NaN, NaN,0.4303241," ""- N/A -   """
22.71,-1.06153,0.37838, NaN, NaN, NaN,0.4303241," ""- N/A -   """
22.72,-1.06153,0.378549, NaN, NaN, NaN,0.429103," ""- N/A -   """
22.73,-0.94358,0.378716, NaN, NaN, NaN,0.429103," ""- N/A -   """
22.74,-1.06153,0.378877, NaN, NaN, NaN,0.4315449," ""- N/A -   """
22.75,-0.94358,0.379046, NaN, NaN, NaN,0.435207," ""- N/A -   """
22.76,-0.94358,0.379204, NaN, NaN, NaN,0.433986," ""- N/A -   """
22.77,-1.06153,0.379371, NaN, NaN, NaN,0.433986," ""- N/A -   """
22.78,-0.94358,0.379538, NaN, NaN, NaN,0.433986," ""- N/A -   """
22.79,-0.94358,0.379707, NaN, NaN, NaN,0.4315449," ""- N/A -   """