File: 2_Tensile_Data/Hamel_ForceTest_Bolt5_Test3.csv
Time, Load (lb), Position (in), AxialStrain (in), TransverseStrain (in), Auxiliary (), Control Out (V), Stress (psi)
0.0, 1.06153, 0.0, NaN, NaN, NaN, 0.108039, "- N/A -   "
0.01, 1.41537, 3.3321e-05, NaN, NaN, NaN, 0.103156, "- N/A -   "
0.02, 1.65126, 6.6642e-05, NaN, NaN, NaN, 0.095831, "- N/A -   "
0.03, 1.88716, 9.718631E-5, NaN, NaN, NaN, 0.0897272, "- N/A -   "
0.04, 2.12305, 0.000124954, NaN, NaN, NaN, 0.084844, "- N/A -   "
0.05, 2.35895, 0.000152721, NaN, NaN, NaN, 0.07874016, "- N/A -   "
0.06, 2.59484, 0.000180489, NaN, NaN, NaN, 0.0750778, "- N/A -   "
0.07, 2.83074, 0.00020548, NaN, NaN, NaN, 0.0701947, "- N/A -   "
0.08, 2.94869, 2.304704E-4, NaN, NaN, NaN, 0.06775316, "- N/A -   "
0.09, 3.18458, 0.000255461, NaN, NaN, NaN, 0.06287005, "- N/A -   "
0.1, 3.30253, 0.000280452, NaN, NaN, NaN, 0.0604285, "- N/A -   "
0.11, 3.53842, 0.000302666, NaN, NaN, NaN, 0.0579869, "- N/A -   "
0.12, 3.65637, 3.221032E-4, NaN, NaN, NaN, 0.0555454, "- N/A -   "
0.13, 3.89227, 0.000344317, NaN, NaN, NaN, 0.0543246, "- N/A -   "
0.14, 4.010214, 0.000366531, NaN, NaN, NaN, 0.05188305, "- N/A -   "
0.15, 4.12816, 0.000388745, NaN, NaN, NaN, 0.0494415, "- N/A -   "
0.16, 4.36406, 0.000410959, NaN, NaN, NaN, 0.04577916, "- N/A -   "
0.17, 4.482, 4.331733E-4, NaN, NaN, NaN, 0.0433376, "- N/A -   "
0.18, 4.717899, 4.553873E-4, NaN, NaN, NaN, 0.04089605, "- N/A -   "
0.19, 4.83585, 4.776013E-4, NaN, NaN, NaN, 0.0384545, "- N/A -   "
0.2, 4.953794, 0.000499815, NaN, NaN, NaN, 0.03601294, "- N/A -   "
0.21, 5.18969, 5.192526E-4, NaN, NaN, NaN, 0.0347922, "- N/A -   "
0.22, 5.307636, 0.00053869, NaN, NaN, NaN, 0.0335714, "- N/A -   "
0.23, 5.307636, 5.553504E-4, NaN, NaN, NaN, 0.0335714, "- N/A -   "
0.24, 5.54353, 5.720109E-4, NaN, NaN, NaN, 0.0335714, "- N/A -   "
0.25, 5.66148, 0.000591448, NaN, NaN, NaN, 0.0323506, "- N/A -   "
0.26, 5.897373, 6.108854E-4, NaN, NaN, NaN, 0.0323506, "- N/A -   "
0.27, 5.897373, 0.000627546, NaN, NaN, NaN, 0.03112983, "- N/A -   "
0.28, 6.13327, 6.442064E-4, NaN, NaN, NaN, 0.03112983, "- N/A -   "
0.29, 6.13327, 6.608669E-4, NaN, NaN, NaN, 0.03112983, "- N/A -   "
0.3, 6.251216, 0.000677527, NaN, NaN, NaN, 0.03112983, "- N/A -   "
0.31, 6.487111, 0.000694188, NaN, NaN, NaN, 0.03112983, "- N/A -   "
0.32, 6.487111, 7.108485E-4, NaN, NaN, NaN, 0.03112983, "- N/A -   "
0.33, 6.723006, 0.000724732, NaN, NaN, NaN, 0.0323506, "- N/A -   "
0.34, 6.723006, 7.38616E-4, NaN, NaN, NaN, 0.0335714, "- N/A -   "
0.35, 6.84095, 0.0007525, NaN, NaN, NaN, 0.0347922, "- N/A -   "
0.36, 7.07685, 7.663835E-4, NaN, NaN, NaN, 0.03601294, "- N/A -   "
0.37, 7.07685, 0.000783044, NaN, NaN, NaN, 0.0372337, "- N/A -   "
0.38, 7.312743, 7.969278E-4, NaN, NaN, NaN, 0.0384545, "- N/A -   "
0.39, 7.430691, 8.108115E-4, NaN, NaN, NaN, 0.0384545, "- N/A -   "
0.4, 7.548638, 8.246953E-4, NaN, NaN, NaN, 0.0396753, "- N/A -   "
0.41, 7.666586, 8.38579E-4, NaN, NaN, NaN, 0.04089605, "- N/A -   "
0.42, 7.784533, 8.552396E-4, NaN, NaN, NaN, 0.04211683, "- N/A -   "
0.43, 7.784533, 8.691233E-4, NaN, NaN, NaN, 0.04211683, "- N/A -   "
0.44, 7.90248, 8.857838E-4, NaN, NaN, NaN, 0.04211683, "- N/A -   "
0.45, 8.138375, 0.000899668, NaN, NaN, NaN, 0.0433376, "- N/A -   "
0.46, 8.138375, 0.000913551, NaN, NaN, NaN, 0.0445584, "- N/A -   "
0.47, 8.256323, 0.000930212, NaN, NaN, NaN, 0.0445584, "- N/A -   "
0.48, 8.492218, 9.440956E-4, NaN, NaN, NaN, 0.04577916, "- N/A -   "
0.49, 8.610166, 0.000960756, NaN, NaN, NaN, 0.04577916, "- N/A -   "
0.5, 8.728113, 9.801934E-4, NaN, NaN, NaN, 0.0445584, "- N/A -   "
0.51, 8.964007, 9.968539E-4, NaN, NaN, NaN, 0.0445584, "- N/A -   "
0.52, 9.081955, 0.00101351, NaN, NaN, NaN, 0.0445584, "- N/A -   "
0.53, 9.31785, 0.00103295, NaN, NaN, NaN, 0.0433376, "- N/A -   "
0.54, 9.435798, 0.00104961, NaN, NaN, NaN, 0.0433376, "- N/A -   "
0.55, 9.553744, 0.00106627, NaN, NaN, NaN, 0.0445584, "- N/A -   "
0.56, 9.907588, 0.00108016, NaN, NaN, NaN, 0.0445584, "- N/A -   "
0.57, 10.0255, 0.001096817, NaN, NaN, NaN, 0.0445584, "- N/A -   "
0.58, 10.26143, 0.00111348, NaN, NaN, NaN, 0.04577916, "- N/A -   "
0.59, 10.4973, 0.001130138, NaN, NaN, NaN, 0.04577916, "- N/A -   "
0.6, 10.73322, 0.0011468, NaN, NaN, NaN, 0.0445584, "- N/A -   "
0.61, 10.8512, 0.001163459, NaN, NaN, NaN, 0.0445584, "- N/A -   "
0.62, 11.0871, 0.00118012, NaN, NaN, NaN, 0.0445584, "- N/A -   "
0.63, 11.323, 0.00119678, NaN, NaN, NaN, 0.0445584, "- N/A -   "
0.64, 11.4409, 0.00121344, NaN, NaN, NaN, 0.0445584, "- N/A -   "
0.65, 11.6768, 0.00123288, NaN, NaN, NaN, 0.0433376, "- N/A -   "
0.66, 11.9127, 0.00125232, NaN, NaN, NaN, 0.0433376, "- N/A -   "
0.67, 12.14859, 0.00126898, NaN, NaN, NaN, 0.04211683, "- N/A -   "
0.68, 12.3845, 0.00128841, NaN, NaN, NaN, 0.04211683, "- N/A -   "
0.69, 12.6204, 0.00130507, NaN, NaN, NaN, 0.04089605, "- N/A -   "
0.7, 12.9742, 0.00132451, NaN, NaN, NaN, 0.0396753, "- N/A -   "
0.71, 13.2101, 0.00134672, NaN, NaN, NaN, 0.0372337, "- N/A -   "
0.72, 13.564, 0.00136894, NaN, NaN, NaN, 0.03601294, "- N/A -   "
0.73, 13.7999, 0.00138838, NaN, NaN, NaN, 0.0335714, "- N/A -   "
0.74, 14.1537, 0.00141059, NaN, NaN, NaN, 0.03112983, "- N/A -   "
0.75, 14.3896, 0.00143003, NaN, NaN, NaN, 0.03112983, "- N/A -   "
0.76, 14.7434, 0.00144946, NaN, NaN, NaN, 0.0286883, "- N/A -   "
0.77, 14.9793, 0.0014689, NaN, NaN, NaN, 0.0286883, "- N/A -   "
0.78, 15.2152, 0.00148556, NaN, NaN, NaN, 0.0286883, "- N/A -   "
0.79, 15.4511, 0.00150222, NaN, NaN, NaN, 0.0274675, "- N/A -   "
0.8, 15.687, 0.00151888, NaN, NaN, NaN, 0.0274675, "- N/A -   "
0.81, 15.9229, 0.00153832, NaN, NaN, NaN, 0.0274675, "- N/A -   "
0.82, 16.1588, 0.0015522, NaN, NaN, NaN, 0.0274675, "- N/A -   "
0.83, 16.3947, 0.00156886, NaN, NaN, NaN, 0.0274675, "- N/A -   "
0.84, 16.6306, 0.00158553, NaN, NaN, NaN, 0.0274675, "- N/A -   "
0.85, 16.9844, 0.00160219, NaN, NaN, NaN, 0.0286883, "- N/A -   "
0.86, 17.1024, 0.00161607, NaN, NaN, NaN, 0.0286883, "- N/A -   "
0.87, 17.2203, 0.00162995, NaN, NaN, NaN, 0.03112983, "- N/A -   "
0.88, 17.4562, 0.00164106, NaN, NaN, NaN, 0.0323506, "- N/A -   "
0.89, 17.6921, 0.001654944, NaN, NaN, NaN, 0.0335714, "- N/A -   "
0.9, 17.928, 0.0016716, NaN, NaN, NaN, 0.0347922, "- N/A -   "
0.91, 18.16391, 0.00168549, NaN, NaN, NaN, 0.0347922, "- N/A -   "
0.92, 18.2819, 0.00169937, NaN, NaN, NaN, 0.03601294, "- N/A -   "
0.93, 18.6357, 0.00171603, NaN, NaN, NaN, 0.0372337, "- N/A -   "
0.94, 18.8716, 0.00172992, NaN, NaN, NaN, 0.0372337, "- N/A -   "
0.95, 19.1075, 0.00174658, NaN, NaN, NaN, 0.0384545, "- N/A -   "
0.96, 19.3434, 0.00176324, NaN, NaN, NaN, 0.0384545, "- N/A -   "
0.97, 19.57928, 0.001779898, NaN, NaN, NaN, 0.0372337, "- N/A -   "
0.98, 19.9331, 0.00179378, NaN, NaN, NaN, 0.0384545, "- N/A -   "
0.99, 20.05107, 0.00181044, NaN, NaN, NaN, 0.0384545, "- N/A -   "
1, 20.287, 0.0018271, NaN, NaN, NaN, 0.0384545, "- N/A -   "
1.01, 20.7588, 0.00184376, NaN, NaN, NaN, 0.0384545, "- N/A -   "
1.07, 22.29207, 0.00194928, NaN, NaN, NaN, 0.0372337, "- N/A -   "
1.13, 23.82539, 0.00204091, NaN, NaN, NaN, 0.0396753, "- N/A -   "
1.19, 25.2408, 0.00213532, NaN, NaN, NaN, 0.04211683, "- N/A -   "
1.25, 26.892, 0.00223251, NaN, NaN, NaN, 0.0433376, "- N/A -   "
1.31, 28.6612, 0.00234358, NaN, NaN, NaN, 0.0384545, "- N/A -   "
1.37, 30.5484, 0.00245465, NaN, NaN, NaN, 0.0335714, "- N/A -   "
1.43, 32.1997, 0.00256294, NaN, NaN, NaN, 0.03112983, "- N/A -   "
1.49, 33.8509, 0.00265457, NaN, NaN, NaN, 0.0335714, "- N/A -   "
1.55, 35.2663, 0.00274621, NaN, NaN, NaN, 0.0372337, "- N/A -   "
1.61, 37.0355, 0.00284895, NaN, NaN, NaN, 0.03601294, "- N/A -   "
1.67, 38.8047, 0.002954464, NaN, NaN, NaN, 0.0335714, "- N/A -   "
1.73, 40.33803, 0.00304887, NaN, NaN, NaN, 0.03601294, "- N/A -   "
1.79, 41.8714, 0.003143283, NaN, NaN, NaN, 0.0396753, "- N/A -   "
1.85, 43.5226, 0.00323769, NaN, NaN, NaN, 0.04089605, "- N/A -   "
1.91, 45.29183, 0.00334321, NaN, NaN, NaN, 0.0396753, "- N/A -   "
1.97, 46.9431, 0.00344317, NaN, NaN, NaN, 0.0396753, "- N/A -   "
2.03, 48.7123, 0.00354591, NaN, NaN, NaN, 0.0372337, "- N/A -   "
2.09, 50.3636, 0.00364865, NaN, NaN, NaN, 0.03601294, "- N/A -   "
2.15, 52.1328, 0.00375139, NaN, NaN, NaN, 0.0347922, "- N/A -   "
2.21, 54.0199, 0.00385969, NaN, NaN, NaN, 0.03112983, "- N/A -   "
2.27, 55.55326, 0.00395965, NaN, NaN, NaN, 0.03112983, "- N/A -   "
2.33, 56.9686, 0.0040485, NaN, NaN, NaN, 0.03601294, "- N/A -   "
2.39, 58.5019, 0.00414847, NaN, NaN, NaN, 0.03601294, "- N/A -   "
2.45, 60.15321, 0.00425954, NaN, NaN, NaN, 0.03112983, "- N/A -   "
2.51, 61.45063, 0.00434839, NaN, NaN, NaN, 0.03601294, "- N/A -   "
2.57, 62.7481, 0.004440026, NaN, NaN, NaN, 0.0396753, "- N/A -   "
2.63, 64.04548, 0.004534436, NaN, NaN, NaN, 0.04211683, "- N/A -   "
2.69, 65.3429, 0.00463718, NaN, NaN, NaN, 0.04089605, "- N/A -   "
2.75, 66.87622, 0.00474825, NaN, NaN, NaN, 0.03601294, "- N/A -   "
2.81, 68.29159, 0.004859315, NaN, NaN, NaN, 0.0323506, "- N/A -   "
2.87, 69.47106, 0.00495373, NaN, NaN, NaN, 0.0335714, "- N/A -   "
2.93, 70.7685, 0.00505091, NaN, NaN, NaN, 0.0347922, "- N/A -   "
2.99, 72.1838, 0.005156428, NaN, NaN, NaN, 0.0323506, "- N/A -   "
3.05, 73.71717, 0.00526194, NaN, NaN, NaN, 0.0299091, "- N/A -   "
3.11, 75.0146, 0.005356354, NaN, NaN, NaN, 0.0323506, "- N/A -   "
3.17, 76.19407, 0.00544521, NaN, NaN, NaN, 0.0372337, "- N/A -   "
3.23, 77.37354, 0.00553129, NaN, NaN, NaN, 0.0433376, "- N/A -   "
3.29, 78.78891, 0.005628476, NaN, NaN, NaN, 0.0445584, "- N/A -   "
3.35, 80.44018, 0.005736769, NaN, NaN, NaN, 0.04211683, "- N/A -   "
3.41, 82.09144, 0.00584229, NaN, NaN, NaN, 0.0396753, "- N/A -   "
3.47, 83.74271, 0.005950579, NaN, NaN, NaN, 0.0347922, "- N/A -   "
3.53, 85.276, 0.00605332, NaN, NaN, NaN, 0.0347922, "- N/A -   "
3.59, 87.16318, 0.006167166, NaN, NaN, NaN, 0.0286883, "- N/A -   "
3.65, 88.57855, 0.006267129, NaN, NaN, NaN, 0.0286883, "- N/A -   "
3.71, 89.99392, 0.00635876, NaN, NaN, NaN, 0.0323506, "- N/A -   "
3.77, 91.1734, 0.006444841, NaN, NaN, NaN, 0.0384545, "- N/A -   "
3.83, 92.70671, 0.00654203, NaN, NaN, NaN, 0.0396753, "- N/A -   "
3.89, 94.1221, 0.00663088, NaN, NaN, NaN, 0.0445584, "- N/A -   "
3.95, 95.6554, 0.00673085, NaN, NaN, NaN, 0.0445584, "- N/A -   "
4.01, 97.18872, 0.00682803, NaN, NaN, NaN, 0.04577916, "- N/A -   "
4.07, 99.0759, 0.00694188, NaN, NaN, NaN, 0.0396753, "- N/A -   "
4.13, 100.963, 0.0070585, NaN, NaN, NaN, 0.0323506, "- N/A -   "
4.19, 102.732, 0.00716402, NaN, NaN, NaN, 0.0299091, "- N/A -   "
4.25, 104.384, 0.00726398, NaN, NaN, NaN, 0.0299091, "- N/A -   "
4.31, 105.917, 0.00735839, NaN, NaN, NaN, 0.0323506, "- N/A -   "
4.37, 107.45, 0.00745558, NaN, NaN, NaN, 0.0347922, "- N/A -   "
4.43, 108.983, 0.007552765, NaN, NaN, NaN, 0.0347922, "- N/A -   "
4.49, 110.517, 0.007652728, NaN, NaN, NaN, 0.0347922, "- N/A -   "
4.55, 112.0501, 0.00773881, NaN, NaN, NaN, 0.04089605, "- N/A -   "
4.61, 113.701, 0.007833217, NaN, NaN, NaN, 0.0445584, "- N/A -   "
4.67, 115.235, 0.007927626, NaN, NaN, NaN, 0.04577916, "- N/A -   "
4.73, 117.24, 0.008041473, NaN, NaN, NaN, 0.0396753, "- N/A -   "
4.79, 119.127, 0.008152544, NaN, NaN, NaN, 0.03601294, "- N/A -   "
4.85, 120.896, 0.008260837, NaN, NaN, NaN, 0.03112983, "- N/A -   "
4.91, 122.665, 0.008358023, NaN, NaN, NaN, 0.0323506, "- N/A -   "
4.97, 124.317, 0.008457987, NaN, NaN, NaN, 0.0323506, "- N/A -   "
5.03, 126.086, 0.008555172, NaN, NaN, NaN, 0.0335714, "- N/A -   "
5.09, 127.855, 0.008657913, NaN, NaN, NaN, 0.0335714, "- N/A -   "
5.15, 129.27, 0.008749545, NaN, NaN, NaN, 0.03601294, "- N/A -   "
5.21, 131.04, 0.008838401, NaN, NaN, NaN, 0.04089605, "- N/A -   "
5.27, 132.809, 0.008938364, NaN, NaN, NaN, 0.04089605, "- N/A -   "
5.33, 134.578, 0.009038327, NaN, NaN, NaN, 0.04211683, "- N/A -   "
5.39, 136.465, 0.009141067, NaN, NaN, NaN, 0.0396753, "- N/A -   "
5.45, 138.588, 0.00924936, NaN, NaN, NaN, 0.03601294, "- N/A -   "
5.51, 140.475, 0.009354877, NaN, NaN, NaN, 0.0335714, "- N/A -   "
5.57, 142.245, 0.00945484, NaN, NaN, NaN, 0.0335714, "- N/A -   "
5.63, 144.014, 0.009552026, NaN, NaN, NaN, 0.0347922, "- N/A -   "
5.69, 145.783, 0.009654766, NaN, NaN, NaN, 0.0335714, "- N/A -   "
5.75, 147.788, 0.009757506, NaN, NaN, NaN, 0.0323506, "- N/A -   "
5.81, 149.557, 0.009851916, NaN, NaN, NaN, 0.0347922, "- N/A -   "
5.87, 151.327, 0.009957432, NaN, NaN, NaN, 0.0335714, "- N/A -   "
5.93, 152.86, 0.0100407, NaN, NaN, NaN, 0.0396753, "- N/A -   "
5.99, 154.629, 0.01013792, NaN, NaN, NaN, 0.04211683, "- N/A -   "
6.05, 156.398, 0.0102296, NaN, NaN, NaN, 0.0445584, "- N/A -   "
6.11, 158.2855, 0.0103323, NaN, NaN, NaN, 0.0433376, "- N/A -   "
6.17, 160.644, 0.0104489, NaN, NaN, NaN, 0.0372337, "- N/A -   "
6.23, 162.65, 0.01056, NaN, NaN, NaN, 0.03112983, "- N/A -   "
6.29, 164.537, 0.0106572, NaN, NaN, NaN, 0.0323506, "- N/A -   "
6.35, 166.306, 0.0107544, NaN, NaN, NaN, 0.0335714, "- N/A -   "
6.41, 168.311, 0.0108599, NaN, NaN, NaN, 0.03112983, "- N/A -   "
6.47, 170.08, 0.0109598, NaN, NaN, NaN, 0.03112983, "- N/A -   "
6.53, 171.732, 0.0110515, NaN, NaN, NaN, 0.03601294, "- N/A -   "
6.59, 173.383, 0.0111403, NaN, NaN, NaN, 0.0396753, "- N/A -   "
6.65, 175.152, 0.0112292, NaN, NaN, NaN, 0.0445584, "- N/A -   "
6.71, 176.9212, 0.0113264, NaN, NaN, NaN, 0.04699994, "- N/A -   "
6.77, 178.926, 0.0114319, NaN, NaN, NaN, 0.0433376, "- N/A -   "
6.83, 181.049, 0.0115485, NaN, NaN, NaN, 0.0372337, "- N/A -   "
6.89, 183.172, 0.0116596, NaN, NaN, NaN, 0.03112983, "- N/A -   "
6.95, 185.06, 0.0117568, NaN, NaN, NaN, 0.0323506, "- N/A -   "
7.01, 187.065, 0.0118678, NaN, NaN, NaN, 0.0286883, "- N/A -   "
7.07, 188.834, 0.011965, NaN, NaN, NaN, 0.0286883, "- N/A -   "
7.13, 190.839, 0.0120678, NaN, NaN, NaN, 0.0286883, "- N/A -   "
7.19, 192.372, 0.0121511, NaN, NaN, NaN, 0.0347922, "- N/A -   "
7.25, 193.7877, 0.0122371, NaN, NaN, NaN, 0.04089605, "- N/A -   "
7.31, 195.675, 0.0123316, NaN, NaN, NaN, 0.0433376, "- N/A -   "
7.37, 197.562, 0.0124343, NaN, NaN, NaN, 0.04211683, "- N/A -   "
7.43, 199.449, 0.0125315, NaN, NaN, NaN, 0.0433376, "- N/A -   "
7.49, 201.454, 0.012637, NaN, NaN, NaN, 0.04089605, "- N/A -   "
7.55, 203.813, 0.0127536, NaN, NaN, NaN, 0.0335714, "- N/A -   "
7.61, 205.936, 0.0128675, NaN, NaN, NaN, 0.0274675, "- N/A -   "
7.67, 207.823, 0.0129702, NaN, NaN, NaN, 0.0274675, "- N/A -   "
7.73, 209.711, 0.01306184, NaN, NaN, NaN, 0.0299091, "- N/A -   "
7.79, 211.48, 0.01315625, NaN, NaN, NaN, 0.0323506, "- N/A -   "
7.85, 213.131, 0.0132479, NaN, NaN, NaN, 0.03601294, "- N/A -   "
7.91, 214.782, 0.0133395, NaN, NaN, NaN, 0.0396753, "- N/A -   "
7.97, 216.67, 0.0134339, NaN, NaN, NaN, 0.04211683, "- N/A -   "
8.03, 218.6746, 0.0135339, NaN, NaN, NaN, 0.04211683, "- N/A -   "
8.09, 220.562, 0.0136339, NaN, NaN, NaN, 0.0433376, "- N/A -   "
8.15, 222.921, 0.0137505, NaN, NaN, NaN, 0.0372337, "- N/A -   "
8.21, 225.044, 0.0138615, NaN, NaN, NaN, 0.0323506, "- N/A -   "
8.27, 226.931, 0.0139587, NaN, NaN, NaN, 0.0323506, "- N/A -   "
8.33, 228.7, 0.0140531, NaN, NaN, NaN, 0.0347922, "- N/A -   "
8.39, 230.587, 0.0141476, NaN, NaN, NaN, 0.0372337, "- N/A -   "
8.45, 232.357, 0.0142447, NaN, NaN, NaN, 0.0384545, "- N/A -   "
8.51, 234.48, 0.0143475, NaN, NaN, NaN, 0.0372337, "- N/A -   "
8.57, 236.603, 0.0144502, NaN, NaN, NaN, 0.03601294, "- N/A -   "
8.61, 237.664, 0.0145113, NaN, NaN, NaN, 0.0384545, "- N/A -   "
8.62, 237.9, 0.014528, NaN, NaN, NaN, 0.0396753, "- N/A -   "
8.63, 238.372, 0.0145418, NaN, NaN, NaN, 0.0396753, "- N/A -   "
8.64, 238.608, 0.01455851, NaN, NaN, NaN, 0.0396753, "- N/A -   "
8.65, 238.962, 0.0145752, NaN, NaN, NaN, 0.0396753, "- N/A -   "
8.66, 239.315, 0.0145946, NaN, NaN, NaN, 0.0384545, "- N/A -   "
8.67, 239.669, 0.0146113, NaN, NaN, NaN, 0.0384545, "- N/A -   "
8.68, 240.0231, 0.0146279, NaN, NaN, NaN, 0.0384545, "- N/A -   "
8.69, 240.259, 0.0146446, NaN, NaN, NaN, 0.0384545, "- N/A -   "
8.7, 240.613, 0.01466125, NaN, NaN, NaN, 0.0384545, "- N/A -   "
8.71, 240.967, 0.01467791, NaN, NaN, NaN, 0.0384545, "- N/A -   "
8.72, 241.203, 0.0146946, NaN, NaN, NaN, 0.0384545, "- N/A -   "
8.73, 241.556, 0.0147112, NaN, NaN, NaN, 0.0396753, "- N/A -   "
8.74, 241.91, 0.0147279, NaN, NaN, NaN, 0.0396753, "- N/A -   "
8.75, 242.146, 0.0147446, NaN, NaN, NaN, 0.0396753, "- N/A -   "
8.76, 242.5, 0.0147584, NaN, NaN, NaN, 0.0396753, "- N/A -   "
8.77, 242.853, 0.0147751, NaN, NaN, NaN, 0.0396753, "- N/A -   "
8.78, 243.207, 0.0147918, NaN, NaN, NaN, 0.0396753, "- N/A -   "
8.79, 243.443, 0.0148084, NaN, NaN, NaN, 0.0396753, "- N/A -   "
8.8, 243.7961, 0.0148251, NaN, NaN, NaN, 0.0396753, "- N/A -   "
8.81, 244.15, 0.0148417, NaN, NaN, NaN, 0.0396753, "- N/A -   "
8.82, 244.621, 0.014864, NaN, NaN, NaN, 0.0384545, "- N/A -   "
8.83, 244.974, 0.0148806, NaN, NaN, NaN, 0.0384545, "- N/A -   "
8.84, 245.328, 0.0148973, NaN, NaN, NaN, 0.0372337, "- N/A -   "
8.85, 245.6813, 0.0149167, NaN, NaN, NaN, 0.0372337, "- N/A -   "
8.86, 246.035, 0.0149334, NaN, NaN, NaN, 0.03601294, "- N/A -   "
8.87, 246.388, 0.01495, NaN, NaN, NaN, 0.03601294, "- N/A -   "
8.88, 246.742, 0.0149667, NaN, NaN, NaN, 0.03601294, "- N/A -   "
8.89, 246.9774, 0.0149834, NaN, NaN, NaN, 0.0372337, "- N/A -   "
8.9, 247.331, 0.0149972, NaN, NaN, NaN, 0.0372337, "- N/A -   "
8.91, 247.567, 0.01501112, NaN, NaN, NaN, 0.0384545, "- N/A -   "
[...]
15.31, 486.164, 0.0256961, NaN, NaN, NaN, 0.0299091, "- N/A -   "
15.41, 489.817, 0.0258488, NaN, NaN, NaN, 0.0372337, "- N/A -   "
15.51, 493.352, 0.0259987, NaN, NaN, NaN, 0.0433376, "- N/A -   "
15.61, 497.7113, 0.0261709, NaN, NaN, NaN, 0.04089605, "- N/A -   "
15.71, 502.071, 0.0263486, NaN, NaN, NaN, 0.03601294, "- N/A -   "
15.81, 506.313, 0.0265208, NaN, NaN, NaN, 0.0335714, "- N/A -   "
15.91, 510.319, 0.0266874, NaN, NaN, NaN, 0.0335714, "- N/A -   "
16.01, 514.21, 0.02685119, NaN, NaN, NaN, 0.03601294, "- N/A -   "
16.11, 518.4678, 0.0270206, NaN, NaN, NaN, 0.0335714, "- N/A -   "
16.21, 522.2528, 0.0271733, NaN, NaN, NaN, 0.0396753, "- N/A -   "
16.31, 526.0378, 0.0273288, NaN, NaN, NaN, 0.04577916, "- N/A -   "
16.41, 530.887, 0.0275204, NaN, NaN, NaN, 0.0335714, "- N/A -   "
16.51, 535.2637, 0.0276925, NaN, NaN, NaN, 0.03112983, "- N/A -   "
16.61, 539.4035, 0.0278647, NaN, NaN, NaN, 0.0299091, "- N/A -   "
16.71, 543.425, 0.0280285, NaN, NaN, NaN, 0.0299091, "- N/A -   "
16.81, 547.21, 0.0281813, NaN, NaN, NaN, 0.03601294, "- N/A -   "
16.91, 550.8768, 0.0283284, NaN, NaN, NaN, 0.0445584, "- N/A -   "
17.01, 555.1349, 0.0285061, NaN, NaN, NaN, 0.04089605, "- N/A -   "
17.11, 559.7478, 0.0286866, NaN, NaN, NaN, 0.03601294, "- N/A -   "
17.21, 564.0059, 0.02885878, NaN, NaN, NaN, 0.0335714, "- N/A -   "
17.31, 568.3823, 0.0290282, NaN, NaN, NaN, 0.03112983, "- N/A -   "
17.41, 572.167, 0.0291892, NaN, NaN, NaN, 0.0347922, "- N/A -   "
17.51, 575.716, 0.0293336, NaN, NaN, NaN, 0.0433376, "- N/A -   "
17.61, 579.8555, 0.02950021, NaN, NaN, NaN, 0.0433376, "- N/A -   "
17.71, 584.232, 0.0296724, NaN, NaN, NaN, 0.04089605, "- N/A -   "
17.81, 589.318, 0.0298612, NaN, NaN, NaN, 0.03112983, "- N/A -   "
17.91, 593.4579, 0.0300333, NaN, NaN, NaN, 0.0286883, "- N/A -   "
18.01, 597.4794, 0.0301888, NaN, NaN, NaN, 0.0335714, "- N/A -   "
18.11, 601.738, 0.0303527, NaN, NaN, NaN, 0.0347922, "- N/A -   "
18.21, 605.286, 0.0305026, NaN, NaN, NaN, 0.04211683, "- N/A -   "
18.31, 609.3075, 0.0306609, NaN, NaN, NaN, 0.04577916, "- N/A -   "
18.41, 614.2753, 0.0308497, NaN, NaN, NaN, 0.03601294, "- N/A -   "
18.51, 618.6517, 0.0310219, NaN, NaN, NaN, 0.0335714, "- N/A -   "
18.61, 622.6732, 0.0311774, NaN, NaN, NaN, 0.0384545, "- N/A -   "
18.71, 627.1679, 0.03135508, NaN, NaN, NaN, 0.0347922, "- N/A -   "
18.81, 631.308, 0.03151613, NaN, NaN, NaN, 0.03601294, "- N/A -   "
18.91, 635.211, 0.03167441, NaN, NaN, NaN, 0.0396753, "- N/A -   "
19.01, 639.469, 0.031841, NaN, NaN, NaN, 0.0396753, "- N/A -   "
19.11, 643.8455, 0.03201317, NaN, NaN, NaN, 0.0384545, "- N/A -   "
19.21, 648.3402, 0.0321826, NaN, NaN, NaN, 0.0372337, "- N/A -   "
19.31, 652.8348, 0.03235749, NaN, NaN, NaN, 0.0323506, "- N/A -   "
19.41, 657.211, 0.0325269, NaN, NaN, NaN, 0.03112983, "- N/A -   "
19.51, 661.3511, 0.0326907, NaN, NaN, NaN, 0.0335714, "- N/A -   "
19.61, 665.018, 0.0328406, NaN, NaN, NaN, 0.0396753, "- N/A -   "
19.71, 669.0393, 0.0329961, NaN, NaN, NaN, 0.04577916, "- N/A -   "
19.81, 673.7705, 0.03317663, NaN, NaN, NaN, 0.0384545, "- N/A -   "
19.91, 678.3835, 0.0333543, NaN, NaN, NaN, 0.0335714, "- N/A -   "
20.01, 682.6416, 0.0335182, NaN, NaN, NaN, 0.03601294, "- N/A -   "
20.11, 687.373, 0.03369866, NaN, NaN, NaN, 0.0286883, "- N/A -   "
20.21, 691.394, 0.03385138, NaN, NaN, NaN, 0.0347922, "- N/A -   "
20.31, 694.9429, 0.03399855, NaN, NaN, NaN, 0.0433376, "- N/A -   "
20.41, 699.437, 0.0341735, NaN, NaN, NaN, 0.0396753, "- N/A -   "
20.51, 704.0504, 0.03434842, NaN, NaN, NaN, 0.03601294, "- N/A -   "
20.61, 708.9, 0.0345289, NaN, NaN, NaN, 0.0299091, "- N/A -   "
20.71, 713.1581, 0.03469829, NaN, NaN, NaN, 0.0286883, "- N/A -   "
20.81, 717.2979, 0.0348566, NaN, NaN, NaN, 0.0323506, "- N/A -   "
20.91, 720.9646, 0.0350037, NaN, NaN, NaN, 0.04089605, "- N/A -   "
21.01, 725.2227, 0.03516756, NaN, NaN, NaN, 0.0433376, "- N/A -   "
21.11, 729.481, 0.03533139, NaN, NaN, NaN, 0.0433376, "- N/A -   "
21.21, 734.803, 0.03552854, NaN, NaN, NaN, 0.03112983, "- N/A -   "
21.31, 739.1799, 0.0356951, NaN, NaN, NaN, 0.0299091, "- N/A -   "
21.41, 743.2014, 0.0358506, NaN, NaN, NaN, 0.0347922, "- N/A -   "
21.51, 747.46, 0.0360117, NaN, NaN, NaN, 0.0384545, "- N/A -   "
21.61, 751.7176, 0.0361755, NaN, NaN, NaN, 0.04089605, "- N/A -   "
21.71, 755.7392, 0.036331, NaN, NaN, NaN, 0.0445584, "- N/A -   "
21.81, 760.707, 0.03651984, NaN, NaN, NaN, 0.0347922, "- N/A -   "
21.91, 765.32, 0.03669755, NaN, NaN, NaN, 0.0299091, "- N/A -   "
22.01, 769.1049, 0.03684472, NaN, NaN, NaN, 0.0384545, "- N/A -   "
22.11, 773.7179, 0.0370197, NaN, NaN, NaN, 0.0347922, "- N/A -   "
22.21, 778.212, 0.037189, NaN, NaN, NaN, 0.0335714, "- N/A -   "
22.31, 781.8792, 0.0373362, NaN, NaN, NaN, 0.04211683, "- N/A -   "
22.41, 786.2557, 0.0375084, NaN, NaN, NaN, 0.04089605, "- N/A -   "
22.51, 790.8685, 0.0376777, NaN, NaN, NaN, 0.0384545, "- N/A -   "
22.61, 795.4815, 0.0378527, NaN, NaN, NaN, 0.0347922, "- N/A -   "
22.71, 799.7397, 0.03801929, NaN, NaN, NaN, 0.0347922, "- N/A -   "
22.81, 803.879, 0.0381803, NaN, NaN, NaN, 0.0372337, "- N/A -   "
22.91, 808.374, 0.0383525, NaN, NaN, NaN, 0.0347922, "- N/A -   "
23.01, 812.3957, 0.0385052, NaN, NaN, NaN, 0.04089605, "- N/A -   "
23.11, 816.6538, 0.03867182, NaN, NaN, NaN, 0.04089605, "- N/A -   "
23.21, 821.2667, 0.038844, NaN, NaN, NaN, 0.0384545, "- N/A -   "
23.31, 825.8797, 0.03902447, NaN, NaN, NaN, 0.0323506, "- N/A -   "
23.41, 830.1378, 0.0391883, NaN, NaN, NaN, 0.0335714, "- N/A -   "
23.51, 834.751, 0.03936601, NaN, NaN, NaN, 0.0286883, "- N/A -   "
23.61, 839.0089, 0.0395243, NaN, NaN, NaN, 0.0323506, "- N/A -   "
23.71, 842.321, 0.03966312, NaN, NaN, NaN, 0.04577916, "- N/A -   "
23.81, 846.579, 0.0398242, NaN, NaN, NaN, 0.0482207, "- N/A -   "
23.91, 851.7832, 0.0400185, NaN, NaN, NaN, 0.0347922, "- N/A -   "
24.01, 856.16, 0.0401907, NaN, NaN, NaN, 0.0335714, "- N/A -   "
24.11, 860.7725, 0.0403629, NaN, NaN, NaN, 0.0299091, "- N/A -   "
24.21, 864.9124, 0.0405239, NaN, NaN, NaN, 0.0323506, "- N/A -   "
24.31, 868.5791, 0.0406711, NaN, NaN, NaN, 0.04211683, "- N/A -   "
24.41, 872.719, 0.04083214, NaN, NaN, NaN, 0.0433376, "- N/A -   "
24.51, 877.3319, 0.04100985, NaN, NaN, NaN, 0.0396753, "- N/A -   "
24.61, 882.181, 0.0411903, NaN, NaN, NaN, 0.0323506, "- N/A -   "
24.71, 886.7943, 0.0413708, NaN, NaN, NaN, 0.0274675, "- N/A -   "
24.81, 890.8159, 0.04152355, NaN, NaN, NaN, 0.0323506, "- N/A -   "
24.91, 894.9557, 0.0416846, NaN, NaN, NaN, 0.0347922, "- N/A -   "
25.01, 899.0956, 0.04184565, NaN, NaN, NaN, 0.0372337, "- N/A -   "
25.11, 902.8805, 0.04199004, NaN, NaN, NaN, 0.04699994, "- N/A -   "
25.21, 907.73, 0.0421733, NaN, NaN, NaN, 0.0396753, "- N/A -   "
25.31, 912.6978, 0.0423594, NaN, NaN, NaN, 0.03112983, "- N/A -   "
25.41, 916.601, 0.04251485, NaN, NaN, NaN, 0.03601294, "- N/A -   "
25.51, 921.096, 0.042687, NaN, NaN, NaN, 0.0335714, "- N/A -   "
25.61, 925.472, 0.0428536, NaN, NaN, NaN, 0.0335714, "- N/A -   "
25.71, 929.139, 0.0430036, NaN, NaN, NaN, 0.04089605, "- N/A -   "
25.81, 933.752, 0.04317294, NaN, NaN, NaN, 0.04089605, "- N/A -   "
25.91, 938.6014, 0.0433534, NaN, NaN, NaN, 0.0347922, "- N/A -   "
26.01, 942.6229, 0.04351448, NaN, NaN, NaN, 0.03601294, "- N/A -   "
26.11, 947.3541, 0.0436922, NaN, NaN, NaN, 0.03112983, "- N/A -   "
26.21, 951.612, 0.043856, NaN, NaN, NaN, 0.0347922, "- N/A -   "
26.31, 955.989, 0.0440254, NaN, NaN, NaN, 0.0335714, "- N/A -   "
26.41, 960.1284, 0.04417812, NaN, NaN, NaN, 0.0384545, "- N/A -   "
26.51, 963.795, 0.0443281, NaN, NaN, NaN, 0.04577916, "- N/A -   "
26.61, 968.4081, 0.0445002, NaN, NaN, NaN, 0.0433376, "- N/A -   "
26.71, 973.3759, 0.04468627, NaN, NaN, NaN, 0.0347922, "- N/A -   "
26.81, 977.516, 0.0448501, NaN, NaN, NaN, 0.03601294, "- N/A -   "
26.91, 982.4836, 0.04503336, NaN, NaN, NaN, 0.0286883, "- N/A -   "
27.01, 986.3868, 0.04518886, NaN, NaN, NaN, 0.0335714, "- N/A -   "
27.11, 989.817, 0.04532492, NaN, NaN, NaN, 0.04699994, "- N/A -   "
27.21, 994.7848, 0.0455082, NaN, NaN, NaN, 0.0396753, "- N/A -   "
27.31, 999.3977, 0.0456831, NaN, NaN, NaN, 0.03601294, "- N/A -   "
27.41, 1003.54, 0.0458497, NaN, NaN, NaN, 0.0372337, "- N/A -   "
27.51, 1008.27, 0.0460274, NaN, NaN, NaN, 0.03112983, "- N/A -   "
27.61, 1012.76, 0.0461968, NaN, NaN, NaN, 0.03112983, "- N/A -   "
27.71, 1016.46, 0.046344, NaN, NaN, NaN, 0.0384545, "- N/A -   "
27.81, 1020.51, 0.0464995, NaN, NaN, NaN, 0.0433376, "- N/A -   "
27.91, 1024.93, 0.0466633, NaN, NaN, NaN, 0.0445584, "- N/A -   "
28.01, 1029.81, 0.04684936, NaN, NaN, NaN, 0.03601294, "- N/A -   "
28.023, 1030.53, 0.04687435, NaN, NaN, NaN, 0.0347922, "- N/A -   "