File: 2_Tensile_Data/Hamel_ForceTest_Bolt8_Test9.csv
Time, Load (lb), Position (in), AxialStrain (in), TransverseStrain (in), Auxiliary (), Control Out (V), Stress (psi)
0.0, 12.2665, 0.0, NaN, NaN, NaN, -0.007935055, "- N/A -   "
0.01, 12.2665, 2.776752E-6, NaN, NaN, NaN, -6.103888E-4, "- N/A -   "
0.02, 12.2665, 2.776752E-6, NaN, NaN, NaN, 0.0115974, "- N/A -   "
0.03, 12.2665, 5.553504E-6, NaN, NaN, NaN, 0.0299091, "- N/A -   "
0.04, 12.2665, 1.1107e-05, NaN, NaN, NaN, 0.04699994, "- N/A -   "
0.05, 12.5024, 2.2214e-05, NaN, NaN, NaN, 0.06164927, "- N/A -   "
0.06, 12.6204, 4.16513e-05, NaN, NaN, NaN, 0.07263627, "- N/A -   "
0.07, 12.9742, 6.386529E-5, NaN, NaN, NaN, 0.08362327, "- N/A -   "
0.08, 13.3281, 8.885606E-5, NaN, NaN, NaN, 0.09094793, "- N/A -   "
0.09, 13.7999, 0.0001194, NaN, NaN, NaN, 0.0982726, "- N/A -   "
0.1, 14.0357, 1.499446E-4, NaN, NaN, NaN, 0.09705182, "- N/A -   "
0.11, 14.5075, 0.000183266, NaN, NaN, NaN, 0.09094793, "- N/A -   "
0.12, 14.7434, 0.000211033, NaN, NaN, NaN, 0.084844, "- N/A -   "
0.13, 15.2152, 0.000238801, NaN, NaN, NaN, 0.08118171, "- N/A -   "
0.14, 15.5691, 0.000266568, NaN, NaN, NaN, 0.0762986, "- N/A -   "
0.15, 15.805, 0.000291559, NaN, NaN, NaN, 0.07141549, "- N/A -   "
0.16, 16.1588, 0.000313773, NaN, NaN, NaN, 0.0689739, "- N/A -   "
0.17, 16.27675, 0.000335987, NaN, NaN, NaN, 0.06775316, "- N/A -   "
0.18, 16.6306, 0.000355424, NaN, NaN, NaN, 0.06653238, "- N/A -   "
0.19, 16.74854, 3.748615E-4, NaN, NaN, NaN, 0.0653116, "- N/A -   "
0.2, 16.9844, 0.000394299, NaN, NaN, NaN, 0.0640908, "- N/A -   "
0.21, 17.3383, 4.13736E-4, NaN, NaN, NaN, 0.06287005, "- N/A -   "
0.22, 17.4562, 4.331733E-4, NaN, NaN, NaN, 0.06164927, "- N/A -   "
0.23, 17.6921, 0.000447057, NaN, NaN, NaN, 0.06164927, "- N/A -   "
0.24, 17.8101, 4.664943E-4, NaN, NaN, NaN, 0.0604285, "- N/A -   "
0.25, 18.046, 4.831548E-4, NaN, NaN, NaN, 0.06164927, "- N/A -   "
0.26, 18.2819, 0.000499815, NaN, NaN, NaN, 0.0604285, "- N/A -   "
0.27, 18.3998, 5.192526E-4, NaN, NaN, NaN, 0.0592077, "- N/A -   "
0.28, 18.6357, 0.00053869, NaN, NaN, NaN, 0.0592077, "- N/A -   "
0.29, 18.8716, 5.581271E-4, NaN, NaN, NaN, 0.05676616, "- N/A -   "
0.3, 18.9895, 0.000577564, NaN, NaN, NaN, 0.0555454, "- N/A -   "
0.31, 19.2254, 0.000597002, NaN, NaN, NaN, 0.0543246, "- N/A -   "
0.32, 19.3434, 6.164389E-4, NaN, NaN, NaN, 0.0531038, "- N/A -   "
0.33, 19.57928, 0.000638653, NaN, NaN, NaN, 0.05066227, "- N/A -   "
0.34, 19.8152, 0.00065809, NaN, NaN, NaN, 0.0494415, "- N/A -   "
0.35, 20.169, 6.803042E-4, NaN, NaN, NaN, 0.04699994, "- N/A -   "
0.36, 20.4049, 6.997415E-4, NaN, NaN, NaN, 0.04577916, "- N/A -   "
0.37, 20.52286, 7.191787E-4, NaN, NaN, NaN, 0.0445584, "- N/A -   "
0.38, 20.8767, 0.000735839, NaN, NaN, NaN, 0.0445584, "- N/A -   "
0.39, 20.99465, 7.552765E-4, NaN, NaN, NaN, 0.0445584, "- N/A -   "
0.4, 21.2305, 7.71937E-4, NaN, NaN, NaN, 0.0433376, "- N/A -   "
0.41, 21.3485, 0.000791374, NaN, NaN, NaN, 0.04211683, "- N/A -   "
0.42, 21.5844, 8.108115E-4, NaN, NaN, NaN, 0.04211683, "- N/A -   "
0.43, 21.8203, 8.27472E-4, NaN, NaN, NaN, 0.04211683, "- N/A -   "
0.44, 21.93823, 0.000844133, NaN, NaN, NaN, 0.04089605, "- N/A -   "
0.45, 22.0562, 0.000860793, NaN, NaN, NaN, 0.04089605, "- N/A -   "
0.46, 22.29207, 8.774536E-4, NaN, NaN, NaN, 0.04089605, "- N/A -   "
0.47, 22.41, 8.968908E-4, NaN, NaN, NaN, 0.0396753, "- N/A -   "
0.48, 22.7639, 0.000913551, NaN, NaN, NaN, 0.0396753, "- N/A -   "
0.49, 22.88181, 9.329886E-4, NaN, NaN, NaN, 0.0396753, "- N/A -   "
0.5, 22.9998, 9.524259E-4, NaN, NaN, NaN, 0.0384545, "- N/A -   "
0.51, 23.2357, 0.000969086, NaN, NaN, NaN, 0.0372337, "- N/A -   "
0.55, 24.1792, 0.00104406, NaN, NaN, NaN, 0.0347922, "- N/A -   "
0.59, 24.769, 0.00111348, NaN, NaN, NaN, 0.0323506, "- N/A -   "
0.63, 25.5946, 0.001185673, NaN, NaN, NaN, 0.0299091, "- N/A -   "
0.67, 26.18434, 0.00125232, NaN, NaN, NaN, 0.0299091, "- N/A -   "
0.71, 26.6561, 0.00130785, NaN, NaN, NaN, 0.0347922, "- N/A -   "
0.75, 27.2459, 0.00136339, NaN, NaN, NaN, 0.0396753, "- N/A -   "
0.79, 27.95355, 0.001421697, NaN, NaN, NaN, 0.0445584, "- N/A -   "
0.83, 28.6612, 0.00148279, NaN, NaN, NaN, 0.04577916, "- N/A -   "
0.87, 29.3689, 0.001554981, NaN, NaN, NaN, 0.0433376, "- N/A -   "
0.91, 30.0766, 0.0016244, NaN, NaN, NaN, 0.0433376, "- N/A -   "
0.95, 30.78429, 0.00169104, NaN, NaN, NaN, 0.04211683, "- N/A -   "
0.99, 31.6099, 0.00176601, NaN, NaN, NaN, 0.0396753, "- N/A -   "
1.03, 32.3176, 0.001835433, NaN, NaN, NaN, 0.0372337, "- N/A -   "
1.07, 33.1432, 0.001913182, NaN, NaN, NaN, 0.0335714, "- N/A -   "
1.11, 33.8509, 0.00198538, NaN, NaN, NaN, 0.0299091, "- N/A -   "
1.15, 34.6766, 0.002057573, NaN, NaN, NaN, 0.0286883, "- N/A -   "
1.19, 35.3842, 0.00212422, NaN, NaN, NaN, 0.0274675, "- N/A -   "
1.23, 36.0919, 0.002193634, NaN, NaN, NaN, 0.0262467, "- N/A -   "
1.27, 36.6817, 0.00225195, NaN, NaN, NaN, 0.0299091, "- N/A -   "
1.31, 37.3893, 0.00231026, NaN, NaN, NaN, 0.0335714, "- N/A -   "
1.35, 37.9791, 0.00237412, NaN, NaN, NaN, 0.0347922, "- N/A -   "
1.39, 38.5688, 0.002437988, NaN, NaN, NaN, 0.03601294, "- N/A -   "
1.43, 39.3945, 0.00250741, NaN, NaN, NaN, 0.03601294, "- N/A -   "
1.47, 39.98419, 0.0025685, NaN, NaN, NaN, 0.0372337, "- N/A -   "
1.51, 40.57393, 0.00262681, NaN, NaN, NaN, 0.04089605, "- N/A -   "
1.55, 41.2816, 0.0026879, NaN, NaN, NaN, 0.0445584, "- N/A -   "
1.59, 41.9893, 0.00274898, NaN, NaN, NaN, 0.04577916, "- N/A -   "
1.63, 42.697, 0.00281285, NaN, NaN, NaN, 0.04699994, "- N/A -   "
1.67, 43.5226, 0.0028906, NaN, NaN, NaN, 0.0433376, "- N/A -   "
1.71, 44.34825, 0.00296835, NaN, NaN, NaN, 0.0384545, "- N/A -   "
1.75, 45.29183, 0.00304332, NaN, NaN, NaN, 0.0335714, "- N/A -   "
1.79, 45.9995, 0.003115516, NaN, NaN, NaN, 0.0323506, "- N/A -   "
1.83, 46.8251, 0.003179381, NaN, NaN, NaN, 0.0323506, "- N/A -   "
1.87, 47.5328, 0.00324047, NaN, NaN, NaN, 0.0347922, "- N/A -   "
1.91, 48.2405, 0.003304335, NaN, NaN, NaN, 0.03601294, "- N/A -   "
1.95, 48.9482, 0.00337375, NaN, NaN, NaN, 0.0347922, "- N/A -   "
1.99, 49.7738, 0.00344317, NaN, NaN, NaN, 0.0335714, "- N/A -   "
2.03, 50.7174, 0.003515368, NaN, NaN, NaN, 0.03112983, "- N/A -   "
2.07, 51.4251, 0.00358201, NaN, NaN, NaN, 0.0323506, "- N/A -   "
2.11, 52.1328, 0.00364032, NaN, NaN, NaN, 0.0347922, "- N/A -   "
2.15, 52.84047, 0.00369863, NaN, NaN, NaN, 0.0396753, "- N/A -   "
2.19, 53.4302, 0.00375417, NaN, NaN, NaN, 0.0433376, "- N/A -   "
2.23, 54.3738, 0.00382359, NaN, NaN, NaN, 0.0433376, "- N/A -   "
2.27, 55.3174, 0.00389578, NaN, NaN, NaN, 0.0396753, "- N/A -   "
2.31, 56.02505, 0.00395965, NaN, NaN, NaN, 0.04089605, "- N/A -   "
2.35, 56.9686, 0.00403462, NaN, NaN, NaN, 0.0372337, "- N/A -   "
2.39, 58.0302, 0.00410959, NaN, NaN, NaN, 0.0335714, "- N/A -   "
2.43, 58.8558, 0.004176235, NaN, NaN, NaN, 0.0347922, "- N/A -   "
2.47, 59.5635, 0.00424288, NaN, NaN, NaN, 0.0347922, "- N/A -   "
2.51, 60.5071, 0.004306742, NaN, NaN, NaN, 0.0347922, "- N/A -   "
2.55, 61.56858, 0.00437894, NaN, NaN, NaN, 0.0335714, "- N/A -   "
2.59, 62.5122, 0.004451133, NaN, NaN, NaN, 0.0299091, "- N/A -   "
2.63, 63.45574, 0.004517775, NaN, NaN, NaN, 0.0299091, "- N/A -   "
2.67, 64.3993, 0.00457886, NaN, NaN, NaN, 0.0323506, "- N/A -   "
2.71, 65.4608, 0.004645506, NaN, NaN, NaN, 0.0323506, "- N/A -   "
2.75, 66.40443, 0.004712148, NaN, NaN, NaN, 0.0323506, "- N/A -   "
2.79, 67.46596, 0.00477879, NaN, NaN, NaN, 0.0323506, "- N/A -   "
2.83, 68.52748, 0.004845432, NaN, NaN, NaN, 0.0323506, "- N/A -   "
2.87, 69.35311, 0.00490374, NaN, NaN, NaN, 0.03601294, "- N/A -   "
2.91, 70.41464, 0.00496206, NaN, NaN, NaN, 0.0396753, "- N/A -   "
2.95, 71.4762, 0.005023144, NaN, NaN, NaN, 0.04211683, "- N/A -   "
2.99, 72.3018, 0.00508423, NaN, NaN, NaN, 0.0445584, "- N/A -   "
3.03, 73.48127, 0.0051481, NaN, NaN, NaN, 0.04699994, "- N/A -   "
3.07, 74.66075, 0.00521752, NaN, NaN, NaN, 0.04577916, "- N/A -   "
3.11, 75.95817, 0.00529527, NaN, NaN, NaN, 0.04089605, "- N/A -   "
3.15, 77.49149, 0.00537301, NaN, NaN, NaN, 0.03601294, "- N/A -   "
3.19, 78.55301, 0.005439657, NaN, NaN, NaN, 0.0347922, "- N/A -   "
3.23, 79.73249, 0.0055063, NaN, NaN, NaN, 0.0347922, "- N/A -   "
3.27, 80.912, 0.00557294, NaN, NaN, NaN, 0.0347922, "- N/A -   "
3.31, 82.09144, 0.005639583, NaN, NaN, NaN, 0.0347922, "- N/A -   "
3.35, 83.38886, 0.00571178, NaN, NaN, NaN, 0.0323506, "- N/A -   "
3.39, 84.68629, 0.005786751, NaN, NaN, NaN, 0.0286883, "- N/A -   "
3.43, 85.74781, 0.005850616, NaN, NaN, NaN, 0.0299091, "- N/A -   "
3.47, 86.92729, 0.005914481, NaN, NaN, NaN, 0.03112983, "- N/A -   "
3.51, 87.8709, 0.005970016, NaN, NaN, NaN, 0.03601294, "- N/A -   "
3.55, 88.6965, 0.00602277, NaN, NaN, NaN, 0.04211683, "- N/A -   "
3.59, 89.758, 0.006081086, NaN, NaN, NaN, 0.04577916, "- N/A -   "
3.63, 91.05545, 0.00614773, NaN, NaN, NaN, 0.04699994, "- N/A -   "
3.67, 92.23492, 0.00621437, NaN, NaN, NaN, 0.04699994, "- N/A -   "
3.71, 93.53234, 0.006289343, NaN, NaN, NaN, 0.0433376, "- N/A -   "
3.75, 95.06567, 0.006367092, NaN, NaN, NaN, 0.0384545, "- N/A -   "
3.79, 96.36309, 0.006439287, NaN, NaN, NaN, 0.03601294, "- N/A -   "
3.83, 97.6605, 0.006508706, NaN, NaN, NaN, 0.0347922, "- N/A -   "
3.87, 98.72203, 0.00657535, NaN, NaN, NaN, 0.03601294, "- N/A -   "
3.91, 100.019, 0.00664754, NaN, NaN, NaN, 0.0335714, "- N/A -   "
3.95, 101.435, 0.00672252, NaN, NaN, NaN, 0.0286883, "- N/A -   "
3.99, 102.732, 0.00679194, NaN, NaN, NaN, 0.0274675, "- N/A -   "
4.03, 103.912, 0.0068558, NaN, NaN, NaN, 0.0286883, "- N/A -   "
4.07, 104.973, 0.00691689, NaN, NaN, NaN, 0.03112983, "- N/A -   "
4.11, 106.035, 0.006977977, NaN, NaN, NaN, 0.0335714, "- N/A -   "
4.15, 107.0963, 0.007036289, NaN, NaN, NaN, 0.0372337, "- N/A -   "
4.19, 108.158, 0.00709738, NaN, NaN, NaN, 0.0396753, "- N/A -   "
4.23, 109.3373, 0.00715847, NaN, NaN, NaN, 0.04211683, "- N/A -   "
4.27, 110.517, 0.007219555, NaN, NaN, NaN, 0.0445584, "- N/A -   "
4.31, 111.8142, 0.007288974, NaN, NaN, NaN, 0.0445584, "- N/A -   "
4.35, 112.994, 0.00735284, NaN, NaN, NaN, 0.04577916, "- N/A -   "
4.39, 114.173, 0.007419481, NaN, NaN, NaN, 0.04577916, "- N/A -   "
4.43, 115.471, 0.00748612, NaN, NaN, NaN, 0.0445584, "- N/A -   "
4.47, 116.768, 0.007555542, NaN, NaN, NaN, 0.0433376, "- N/A -   "
4.51, 118.419, 0.007638844, NaN, NaN, NaN, 0.03601294, "- N/A -   "
4.55, 119.835, 0.00771659, NaN, NaN, NaN, 0.03112983, "- N/A -   "
4.59, 121.014, 0.007780459, NaN, NaN, NaN, 0.0323506, "- N/A -   "
4.63, 122.429, 0.007852654, NaN, NaN, NaN, 0.0299091, "- N/A -   "
4.67, 123.609, 0.007916519, NaN, NaN, NaN, 0.03112983, "- N/A -   "
4.71, 124.906, 0.007977608, NaN, NaN, NaN, 0.0335714, "- N/A -   "
4.75, 125.9679, 0.008038696, NaN, NaN, NaN, 0.03601294, "- N/A -   "
4.79, 127.147, 0.008102562, NaN, NaN, NaN, 0.0372337, "- N/A -   "
4.83, 128.4448, 0.008169204, NaN, NaN, NaN, 0.0372337, "- N/A -   "
4.87, 129.86, 0.008235846, NaN, NaN, NaN, 0.0372337, "- N/A -   "
4.91, 130.922, 0.008294158, NaN, NaN, NaN, 0.04089605, "- N/A -   "
4.95, 132.101, 0.008355246, NaN, NaN, NaN, 0.0445584, "- N/A -   "
4.99, 133.399, 0.008416334, NaN, NaN, NaN, 0.04577916, "- N/A -   "
5.03, 134.696, 0.00848853, NaN, NaN, NaN, 0.0433376, "- N/A -   "
5.07, 136.229, 0.008563503, NaN, NaN, NaN, 0.04089605, "- N/A -   "
5.11, 137.8806, 0.008641251, NaN, NaN, NaN, 0.03601294, "- N/A -   "
5.15, 139.296, 0.00871345, NaN, NaN, NaN, 0.0323506, "- N/A -   "
5.19, 140.711, 0.00878842, NaN, NaN, NaN, 0.0299091, "- N/A -   "
5.23, 142.009, 0.008849508, NaN, NaN, NaN, 0.03112983, "- N/A -   "
5.27, 143.07, 0.00890782, NaN, NaN, NaN, 0.0347922, "- N/A -   "
5.31, 144.486, 0.008974462, NaN, NaN, NaN, 0.03601294, "- N/A -   "
5.35, 145.783, 0.009043881, NaN, NaN, NaN, 0.0347922, "- N/A -   "
5.39, 147.316, 0.009116076, NaN, NaN, NaN, 0.03112983, "- N/A -   "
5.43, 148.732, 0.009185495, NaN, NaN, NaN, 0.0299091, "- N/A -   "
5.47, 150.029, 0.009246584, NaN, NaN, NaN, 0.0335714, "- N/A -   "
5.51, 151.091, 0.009304895, NaN, NaN, NaN, 0.03601294, "- N/A -   "
5.55, 152.27, 0.009365984, NaN, NaN, NaN, 0.0384545, "- N/A -   "
5.59, 153.45, 0.009424296, NaN, NaN, NaN, 0.04211683, "- N/A -   "
5.63, 154.629, 0.009488161, NaN, NaN, NaN, 0.0433376, "- N/A -   "
5.67, 156.0445, 0.009560356, NaN, NaN, NaN, 0.04089605, "- N/A -   "
5.71, 157.342, 0.009624222, NaN, NaN, NaN, 0.04211683, "- N/A -   "
5.75, 158.639, 0.009690864, NaN, NaN, NaN, 0.04211683, "- N/A -   "
5.79, 160.055, 0.00976306, NaN, NaN, NaN, 0.0396753, "- N/A -   "
5.83, 161.4701, 0.009832478, NaN, NaN, NaN, 0.0384545, "- N/A -   "
5.87, 162.885, 0.009901898, NaN, NaN, NaN, 0.0372337, "- N/A -   "
5.91, 164.183, 0.00996854, NaN, NaN, NaN, 0.0372337, "- N/A -   "
5.95, 165.4803, 0.010038, NaN, NaN, NaN, 0.03601294, "- N/A -   "
5.99, 166.778, 0.0101074, NaN, NaN, NaN, 0.03601294, "- N/A -   "
6, 167.132, 0.010124, NaN, NaN, NaN, 0.0347922, "- N/A -   "
6.01, 167.485, 0.0101435, NaN, NaN, NaN, 0.0335714, "- N/A -   "
6.02, 167.9572, 0.0101629, NaN, NaN, NaN, 0.0335714, "- N/A -   "
6.03, 168.311, 0.0101768, NaN, NaN, NaN, 0.0335714, "- N/A -   "
6.04, 168.547, 0.0101935, NaN, NaN, NaN, 0.0335714, "- N/A -   "
6.05, 168.901, 0.0102129, NaN, NaN, NaN, 0.0335714, "- N/A -   "
6.06, 169.137, 0.0102268, NaN, NaN, NaN, 0.0335714, "- N/A -   "
6.07, 169.608, 0.0102434, NaN, NaN, NaN, 0.0335714, "- N/A -   "
6.08, 169.726, 0.0102601, NaN, NaN, NaN, 0.0335714, "- N/A -   "
6.09, 170.08, 0.0102768, NaN, NaN, NaN, 0.0335714, "- N/A -   "
6.1, 170.4341, 0.0102906, NaN, NaN, NaN, 0.0347922, "- N/A -   "
6.11, 170.788, 0.01031008, NaN, NaN, NaN, 0.0347922, "- N/A -   "
6.12, 171.024, 0.010324, NaN, NaN, NaN, 0.0347922, "- N/A -   "
6.13, 171.378, 0.0103434, NaN, NaN, NaN, 0.0347922, "- N/A -   "
6.14, 171.614, 0.0103573, NaN, NaN, NaN, 0.0347922, "- N/A -   "
6.15, 171.849, 0.0103712, NaN, NaN, NaN, 0.03601294, "- N/A -   "
6.16, 172.203, 0.0103878, NaN, NaN, NaN, 0.03601294, "- N/A -   "
6.17, 172.557, 0.01040449, NaN, NaN, NaN, 0.03601294, "- N/A -   "
6.18, 172.911, 0.0104239, NaN, NaN, NaN, 0.0347922, "- N/A -   "
6.19, 173.265, 0.0104434, NaN, NaN, NaN, 0.0335714, "- N/A -   "
6.2, 173.619, 0.01046, NaN, NaN, NaN, 0.0335714, "- N/A -   "
6.21, 174.09, 0.0104795, NaN, NaN, NaN, 0.0323506, "- N/A -   "
6.22, 174.326, 0.0104989, NaN, NaN, NaN, 0.0323506, "- N/A -   "
6.23, 174.6802, 0.0105128, NaN, NaN, NaN, 0.0323506, "- N/A -   "
6.24, 174.9161, 0.0105267, NaN, NaN, NaN, 0.0335714, "- N/A -   "
6.25, 175.27, 0.0105433, NaN, NaN, NaN, 0.0335714, "- N/A -   "
6.26, 175.506, 0.0105572, NaN, NaN, NaN, 0.03601294, "- N/A -   "
6.27, 175.742, 0.0105711, NaN, NaN, NaN, 0.0372337, "- N/A -   "
6.28, 175.978, 0.010585, NaN, NaN, NaN, 0.0384545, "- N/A -   "
6.29, 176.331, 0.0105989, NaN, NaN, NaN, 0.0384545, "- N/A -   "
6.3, 176.567, 0.0106155, NaN, NaN, NaN, 0.0384545, "- N/A -   "
6.31, 176.9212, 0.0106294, NaN, NaN, NaN, 0.0396753, "- N/A -   "
6.32, 177.1571, 0.0106461, NaN, NaN, NaN, 0.0396753, "- N/A -   "
6.33, 177.511, 0.0106627, NaN, NaN, NaN, 0.0396753, "- N/A -   "
6.34, 177.747, 0.0106766, NaN, NaN, NaN, 0.04089605, "- N/A -   "
6.35, 178.1007, 0.0106933, NaN, NaN, NaN, 0.04089605, "- N/A -   "
6.36, 178.455, 0.0107099, NaN, NaN, NaN, 0.04089605, "- N/A -   "
6.37, 178.69, 0.0107266, NaN, NaN, NaN, 0.04089605, "- N/A -   "
6.38, 179.044, 0.0107433, NaN, NaN, NaN, 0.04089605, "- N/A -   "
6.39, 179.3981, 0.0107599, NaN, NaN, NaN, 0.04089605, "- N/A -   "
6.4, 179.752, 0.0107766, NaN, NaN, NaN, 0.04089605, "- N/A -   "
6.41, 179.988, 0.0107932, NaN, NaN, NaN, 0.04211683, "- N/A -   "
6.42, 180.342, 0.0108071, NaN, NaN, NaN, 0.0433376, "- N/A -   "
6.43, 180.578, 0.0108238, NaN, NaN, NaN, 0.04211683, "- N/A -   "
6.44, 181.049, 0.01084044, NaN, NaN, NaN, 0.04211683, "- N/A -   "
6.45, 181.285, 0.0108571, NaN, NaN, NaN, 0.04211683, "- N/A -   "
6.46, 181.521, 0.0108738, NaN, NaN, NaN, 0.04211683, "- N/A -   "
6.47, 181.993, 0.0108932, NaN, NaN, NaN, 0.04089605, "- N/A -   "
6.48, 182.3468, 0.0109099, NaN, NaN, NaN, 0.04089605, "- N/A -   "
6.49, 182.701, 0.0109293, NaN, NaN, NaN, 0.0396753, "- N/A -   "
6.5, 183.054, 0.010946, NaN, NaN, NaN, 0.0396753, "- N/A -   "
6.51, 183.408, 0.0109654, NaN, NaN, NaN, 0.0384545, "- N/A -   "
6.52, 183.762, 0.0109848, NaN, NaN, NaN, 0.0384545, "- N/A -   "
6.53, 184.116, 0.0110043, NaN, NaN, NaN, 0.03601294, "- N/A -   "
6.54, 184.47, 0.0110237, NaN, NaN, NaN, 0.0347922, "- N/A -   "
6.55, 184.942, 0.0110431, NaN, NaN, NaN, 0.0335714, "- N/A -   "
6.56, 185.413, 0.0110654, NaN, NaN, NaN, 0.03112983, "- N/A -   "
6.57, 185.767, 0.011082, NaN, NaN, NaN, 0.03112983, "- N/A -   "
6.58, 186.003, 0.0111015, NaN, NaN, NaN, 0.0299091, "- N/A -   "
6.59, 186.357, 0.0111181, NaN, NaN, NaN, 0.03112983, "- N/A -   "
6.6, 186.711, 0.0111348, NaN, NaN, NaN, 0.0299091, "- N/A -   "
6.61, 186.947, 0.0111487, NaN, NaN, NaN, 0.03112983, "- N/A -   "
6.62, 187.301, 0.0111653, NaN, NaN, NaN, 0.03112983, "- N/A -   "
6.63, 187.419, 0.0111792, NaN, NaN, NaN, 0.0323506, "- N/A -   "
6.64, 187.772, 0.0111959, NaN, NaN, NaN, 0.0323506, "- N/A -   "
6.65, 188.008, 0.0112125, NaN, NaN, NaN, 0.0323506, "- N/A -   "
6.66, 188.3621, 0.0112292, NaN, NaN, NaN, 0.0323506, "- N/A -   "
6.67, 188.598, 0.0112458, NaN, NaN, NaN, 0.0335714, "- N/A -   "
6.68, 188.834, 0.0112597, NaN, NaN, NaN, 0.0335714, "- N/A -   "
[...]
36.98, 1426.21, 0.06175218, NaN, NaN, NaN, 0.0372337, "- N/A -   "
36.99, 1426.685, 0.06176607, NaN, NaN, NaN, 0.0384545, "- N/A -   "
37, 1427.04, 0.06178, NaN, NaN, NaN, 0.0396753, "- N/A -   "
37.01, 1427.4, 0.0617938, NaN, NaN, NaN, 0.04089605, "- N/A -   "
37.05, 1429.19, 0.0618577, NaN, NaN, NaN, 0.0433376, "- N/A -   "
37.09, 1430.86, 0.0619216, NaN, NaN, NaN, 0.0445584, "- N/A -   "
37.13, 1432.53, 0.0619827, NaN, NaN, NaN, 0.04577916, "- N/A -   "
37.17, 1434.56, 0.06205207, NaN, NaN, NaN, 0.0445584, "- N/A -   "
37.21, 1436.58, 0.0621243, NaN, NaN, NaN, 0.04211683, "- N/A -   "
37.25, 1438.85, 0.0622048, NaN, NaN, NaN, 0.0372337, "- N/A -   "
37.29, 1440.64, 0.0622714, NaN, NaN, NaN, 0.03601294, "- N/A -   "
37.33, 1442.66, 0.0623409, NaN, NaN, NaN, 0.0347922, "- N/A -   "
37.37, 1444.45, 0.0624075, NaN, NaN, NaN, 0.03601294, "- N/A -   "
37.41, 1446.24, 0.0624714, NaN, NaN, NaN, 0.03601294, "- N/A -   "
37.45, 1448.03, 0.062538, NaN, NaN, NaN, 0.03601294, "- N/A -   "
37.49, 1450.18, 0.06261298, NaN, NaN, NaN, 0.0323506, "- N/A -   "
37.53, 1451.97, 0.0626824, NaN, NaN, NaN, 0.03112983, "- N/A -   "
37.57, 1453.99, 0.062749, NaN, NaN, NaN, 0.03112983, "- N/A -   "
37.61, 1455.544, 0.06281013, NaN, NaN, NaN, 0.0347922, "- N/A -   "
37.65, 1456.975, 0.06286566, NaN, NaN, NaN, 0.0396753, "- N/A -   "
37.69, 1458.53, 0.062924, NaN, NaN, NaN, 0.04211683, "- N/A -   "
37.73, 1460.31, 0.06298784, NaN, NaN, NaN, 0.0445584, "- N/A -   "
37.77, 1461.98, 0.06304893, NaN, NaN, NaN, 0.04699994, "- N/A -   "
37.81, 1463.89, 0.0631156, NaN, NaN, NaN, 0.04577916, "- N/A -   "
37.85, 1466.04, 0.06319054, NaN, NaN, NaN, 0.04211683, "- N/A -   "
37.89, 1467.95, 0.06326551, NaN, NaN, NaN, 0.0384545, "- N/A -   "
37.93, 1470.212, 0.0633405, NaN, NaN, NaN, 0.0347922, "- N/A -   "
37.97, 1472.12, 0.0634099, NaN, NaN, NaN, 0.0335714, "- N/A -   "
38.01, 1474.03, 0.0634821, NaN, NaN, NaN, 0.0323506, "- N/A -   "
38.05, 1476.06, 0.0635543, NaN, NaN, NaN, 0.0299091, "- N/A -   "
38.09, 1478.2, 0.06362649, NaN, NaN, NaN, 0.0262467, "- N/A -   "
38.13, 1479.87, 0.06369036, NaN, NaN, NaN, 0.0274675, "- N/A -   "
38.17, 1481.541, 0.06375422, NaN, NaN, NaN, 0.0299091, "- N/A -   "
38.21, 1483.45, 0.06381809, NaN, NaN, NaN, 0.03112983, "- N/A -   "
38.25, 1484.88, 0.06387363, NaN, NaN, NaN, 0.03601294, "- N/A -   "
38.29, 1486.43, 0.0639292, NaN, NaN, NaN, 0.0396753, "- N/A -   "
38.33, 1488.22, 0.06399024, NaN, NaN, NaN, 0.04211683, "- N/A -   "
38.37, 1489.89, 0.06405134, NaN, NaN, NaN, 0.0445584, "- N/A -   "
38.41, 1491.8, 0.06412353, NaN, NaN, NaN, 0.0433376, "- N/A -   "
38.45, 1493.59, 0.06418461, NaN, NaN, NaN, 0.0445584, "- N/A -   "
38.49, 1495.49, 0.06425404, NaN, NaN, NaN, 0.0433376, "- N/A -   "
38.53, 1497.52, 0.0643235, NaN, NaN, NaN, 0.04211683, "- N/A -   "
38.57, 1499.43, 0.06439565, NaN, NaN, NaN, 0.0396753, "- N/A -   "
38.61, 1501.58, 0.0644734, NaN, NaN, NaN, 0.0347922, "- N/A -   "
38.65, 1503.84, 0.06455115, NaN, NaN, NaN, 0.0299091, "- N/A -   "
38.69, 1505.63, 0.06462057, NaN, NaN, NaN, 0.0299091, "- N/A -   "
38.73, 1507.66, 0.06468721, NaN, NaN, NaN, 0.0286883, "- N/A -   "
38.77, 1509.45, 0.06475108, NaN, NaN, NaN, 0.0299091, "- N/A -   "
38.81, 1511.12, 0.06481216, NaN, NaN, NaN, 0.0323506, "- N/A -   "
38.85, 1512.785, 0.06487048, NaN, NaN, NaN, 0.03601294, "- N/A -   "
38.89, 1514.45, 0.0649316, NaN, NaN, NaN, 0.0384545, "- N/A -   "
38.93, 1516.24, 0.06499821, NaN, NaN, NaN, 0.0384545, "- N/A -   "
38.97, 1518.27, 0.0650704, NaN, NaN, NaN, 0.0372337, "- N/A -   "
39.01, 1519.94, 0.06513149, NaN, NaN, NaN, 0.0384545, "- N/A -   "
39.05, 1521.49, 0.0651898, NaN, NaN, NaN, 0.04211683, "- N/A -   "
39.09, 1523.28, 0.06525367, NaN, NaN, NaN, 0.0445584, "- N/A -   "
39.13, 1525.07, 0.06532031, NaN, NaN, NaN, 0.0445584, "- N/A -   "
39.17, 1527.1, 0.0653925, NaN, NaN, NaN, 0.04211683, "- N/A -   "
39.21, 1529.36, 0.065473, NaN, NaN, NaN, 0.0347922, "- N/A -   "
39.25, 1531.63, 0.06555078, NaN, NaN, NaN, 0.0299091, "- N/A -   "
39.29, 1533.53, 0.06561743, NaN, NaN, NaN, 0.0299091, "- N/A -   "
39.33, 1535.32, 0.0656813, NaN, NaN, NaN, 0.03112983, "- N/A -   "
39.37, 1536.87, 0.06574238, NaN, NaN, NaN, 0.0347922, "- N/A -   "
39.41, 1538.54, 0.06580346, NaN, NaN, NaN, 0.03601294, "- N/A -   "
39.45, 1540.45, 0.0658701, NaN, NaN, NaN, 0.03601294, "- N/A -   "
39.49, 1542.48, 0.0659423, NaN, NaN, NaN, 0.0335714, "- N/A -   "
39.53, 1544.506, 0.06601727, NaN, NaN, NaN, 0.03112983, "- N/A -   "
39.57, 1546.29, 0.0660839, NaN, NaN, NaN, 0.03112983, "- N/A -   "
39.61, 1548.08, 0.06614223, NaN, NaN, NaN, 0.0335714, "- N/A -   "
39.65, 1549.51, 0.06620054, NaN, NaN, NaN, 0.0372337, "- N/A -   "
39.69, 1551.065, 0.0662616, NaN, NaN, NaN, 0.04089605, "- N/A -   "
39.73, 1552.85, 0.0663227, NaN, NaN, NaN, 0.0433376, "- N/A -   "
39.77, 1554.76, 0.06638936, NaN, NaN, NaN, 0.04211683, "- N/A -   "
39.81, 1556.55, 0.06645878, NaN, NaN, NaN, 0.04211683, "- N/A -   "
39.85, 1558.34, 0.06652264, NaN, NaN, NaN, 0.0433376, "- N/A -   "
39.89, 1560.37, 0.06659206, NaN, NaN, NaN, 0.04211683, "- N/A -   "
39.93, 1562.39, 0.0666643, NaN, NaN, NaN, 0.0396753, "- N/A -   "
39.97, 1564.421, 0.06673645, NaN, NaN, NaN, 0.0384545, "- N/A -   "
40.01, 1566.21, 0.0668031, NaN, NaN, NaN, 0.0372337, "- N/A -   "
40.05, 1568.12, 0.0668697, NaN, NaN, NaN, 0.0384545, "- N/A -   "
40.09, 1570.026, 0.06693638, NaN, NaN, NaN, 0.0372337, "- N/A -   "
40.13, 1571.934, 0.06700858, NaN, NaN, NaN, 0.0347922, "- N/A -   "
40.17, 1573.84, 0.0670808, NaN, NaN, NaN, 0.0335714, "- N/A -   "
40.21, 1575.75, 0.06714464, NaN, NaN, NaN, 0.0335714, "- N/A -   "
40.25, 1577.42, 0.0672085, NaN, NaN, NaN, 0.0347922, "- N/A -   "
40.29, 1579.33, 0.0672779, NaN, NaN, NaN, 0.0335714, "- N/A -   "
40.33, 1581.24, 0.06734734, NaN, NaN, NaN, 0.0323506, "- N/A -   "
40.37, 1583.02, 0.06741121, NaN, NaN, NaN, 0.0335714, "- N/A -   "
40.41, 1584.694, 0.0674723, NaN, NaN, NaN, 0.03601294, "- N/A -   "
40.45, 1586.48, 0.06753616, NaN, NaN, NaN, 0.0372337, "- N/A -   "
40.49, 1588.15, 0.06760002, NaN, NaN, NaN, 0.0384545, "- N/A -   "
40.53, 1589.7, 0.0676583, NaN, NaN, NaN, 0.0433376, "- N/A -   "
40.57, 1591.61, 0.0677222, NaN, NaN, NaN, 0.0445584, "- N/A -   "
40.61, 1593.28, 0.06778885, NaN, NaN, NaN, 0.0445584, "- N/A -   "
40.65, 1595.31, 0.0678583, NaN, NaN, NaN, 0.04211683, "- N/A -   "
40.69, 1597.454, 0.06793601, NaN, NaN, NaN, 0.0372337, "- N/A -   "
40.73, 1599.24, 0.0680027, NaN, NaN, NaN, 0.0372337, "- N/A -   "
40.77, 1601.15, 0.0680693, NaN, NaN, NaN, 0.0372337, "- N/A -   "
40.81, 1602.94, 0.06813871, NaN, NaN, NaN, 0.03601294, "- N/A -   "
40.85, 1605.21, 0.06821369, NaN, NaN, NaN, 0.0323506, "- N/A -   "
40.89, 1607.59, 0.06829976, NaN, NaN, NaN, 0.0250259, "- N/A -   "
40.93, 1609.5, 0.06836363, NaN, NaN, NaN, 0.0250259, "- N/A -   "
40.97, 1610.93, 0.0684219, NaN, NaN, NaN, 0.0286883, "- N/A -   "
41.01, 1612.6, 0.06848303, NaN, NaN, NaN, 0.0323506, "- N/A -   "
41.05, 1614.03, 0.06853856, NaN, NaN, NaN, 0.03601294, "- N/A -   "
41.09, 1615.34, 0.06859132, NaN, NaN, NaN, 0.0433376, "- N/A -   "
41.13, 1617.01, 0.0686524, NaN, NaN, NaN, 0.0445584, "- N/A -   "
41.17, 1618.68, 0.0687135, NaN, NaN, NaN, 0.0482207, "- N/A -   "
41.21, 1620.47, 0.06877737, NaN, NaN, NaN, 0.0494415, "- N/A -   "
41.25, 1622.5, 0.06884956, NaN, NaN, NaN, 0.04577916, "- N/A -   "
41.29, 1624.76, 0.06893009, NaN, NaN, NaN, 0.0396753, "- N/A -   "
41.33, 1626.79, 0.06900784, NaN, NaN, NaN, 0.0347922, "- N/A -   "
41.37, 1628.94, 0.06908281, NaN, NaN, NaN, 0.0323506, "- N/A -   "
41.41, 1630.61, 0.0691439, NaN, NaN, NaN, 0.0335714, "- N/A -   "
41.45, 1632.63, 0.0692161, NaN, NaN, NaN, 0.0323506, "- N/A -   "
41.49, 1634.422, 0.06928274, NaN, NaN, NaN, 0.03112983, "- N/A -   "
41.53, 1636.33, 0.06935216, NaN, NaN, NaN, 0.0299091, "- N/A -   "
41.57, 1638.12, 0.0694188, NaN, NaN, NaN, 0.0299091, "- N/A -   "
41.61, 1640.03, 0.06948544, NaN, NaN, NaN, 0.0299091, "- N/A -   "
41.65, 1641.7, 0.06954375, NaN, NaN, NaN, 0.0335714, "- N/A -   "
41.69, 1643.25, 0.0696021, NaN, NaN, NaN, 0.0372337, "- N/A -   "
41.73, 1644.68, 0.06966037, NaN, NaN, NaN, 0.04089605, "- N/A -   "
41.77, 1646.11, 0.06971869, NaN, NaN, NaN, 0.0445584, "- N/A -   "
41.81, 1648.02, 0.0697881, NaN, NaN, NaN, 0.0433376, "- N/A -   "
41.85, 1649.92, 0.06985752, NaN, NaN, NaN, 0.0433376, "- N/A -   "
41.89, 1651.83, 0.06992416, NaN, NaN, NaN, 0.04211683, "- N/A -   "
41.93, 1653.62, 0.06999081, NaN, NaN, NaN, 0.04211683, "- N/A -   "
41.97, 1655.65, 0.070063, NaN, NaN, NaN, 0.0396753, "- N/A -   "
41.982, 1656.25, 0.07008521, NaN, NaN, NaN, 0.0396753, "- N/A -   "