File: 2_Tensile_Data/Hamel_ForceTest_Bolt9_Test2.csv
Time, Load (lb), Position (in), AxialStrain (in), TransverseStrain (in), Auxiliary (), Control Out (V), Stress (psi)
0.0, 1.06153, 0.0, NaN, NaN, NaN, 0.103156, "- N/A -   "
0.01, 1.53332, 3.3321e-05, NaN, NaN, NaN, 0.103156, "- N/A -   "
0.02, 1.88716, 6.6642e-05, NaN, NaN, NaN, 0.09461027, "- N/A -   "
0.03, 2.35895, 9.718631E-5, NaN, NaN, NaN, 0.08850638, "- N/A -   "
0.04, 2.712792, 0.000127731, NaN, NaN, NaN, 0.08362327, "- N/A -   "
0.05, 2.94869, 0.000152721, NaN, NaN, NaN, 0.07874016, "- N/A -   "
0.06, 3.30253, 0.000183266, NaN, NaN, NaN, 0.07263627, "- N/A -   "
0.07, 3.53842, 2.138099E-4, NaN, NaN, NaN, 0.06775316, "- N/A -   "
0.08, 3.89227, 0.000238801, NaN, NaN, NaN, 0.06287005, "- N/A -   "
0.09, 4.246109, 0.000266568, NaN, NaN, NaN, 0.0592077, "- N/A -   "
0.1, 4.59995, 0.000294336, NaN, NaN, NaN, 0.0543246, "- N/A -   "
0.11, 4.717899, 3.165497E-4, NaN, NaN, NaN, 0.05066227, "- N/A -   "
0.12, 5.071741, 0.000338764, NaN, NaN, NaN, 0.0482207, "- N/A -   "
0.13, 5.307636, 0.000360978, NaN, NaN, NaN, 0.04699994, "- N/A -   "
0.14, 5.425584, 3.80415E-4, NaN, NaN, NaN, 0.0445584, "- N/A -   "
0.15, 5.66148, 0.000402629, NaN, NaN, NaN, 0.04211683, "- N/A -   "
0.16, 6.01532, 0.000422066, NaN, NaN, NaN, 0.04089605, "- N/A -   "
0.17, 6.13327, 4.442803E-4, NaN, NaN, NaN, 0.0384545, "- N/A -   "
0.18, 6.369163, 4.609408E-4, NaN, NaN, NaN, 0.0384545, "- N/A -   "
0.19, 6.60506, 4.776013E-4, NaN, NaN, NaN, 0.0384545, "- N/A -   "
0.2, 6.84095, 4.970386E-4, NaN, NaN, NaN, 0.0384545, "- N/A -   "
0.21, 6.84095, 0.000510922, NaN, NaN, NaN, 0.0384545, "- N/A -   "
0.22, 7.07685, 0.000527583, NaN, NaN, NaN, 0.0384545, "- N/A -   "
0.23, 7.1948, 5.442434E-4, NaN, NaN, NaN, 0.0396753, "- N/A -   "
0.24, 7.430691, 5.553504E-4, NaN, NaN, NaN, 0.04089605, "- N/A -   "
0.25, 7.548638, 5.720109E-4, NaN, NaN, NaN, 0.04089605, "- N/A -   "
0.26, 7.666586, 5.858946E-4, NaN, NaN, NaN, 0.04211683, "- N/A -   "
0.27, 7.90248, 0.000602555, NaN, NaN, NaN, 0.04211683, "- N/A -   "
0.28, 8.138375, 0.000619216, NaN, NaN, NaN, 0.0433376, "- N/A -   "
0.29, 8.138375, 6.330994E-4, NaN, NaN, NaN, 0.0433376, "- N/A -   "
0.3, 8.37427, 6.497599E-4, NaN, NaN, NaN, 0.0433376, "- N/A -   "
0.31, 8.610166, 6.636437E-4, NaN, NaN, NaN, 0.0445584, "- N/A -   "
0.37, 9.553744, 7.6083E-4, NaN, NaN, NaN, 0.04577916, "- N/A -   "
0.43, 10.6153, 8.635698E-4, NaN, NaN, NaN, 0.04577916, "- N/A -   "
0.49, 11.7947, 9.635329E-4, NaN, NaN, NaN, 0.0445584, "- N/A -   "
0.55, 13.09217, 0.001074603, NaN, NaN, NaN, 0.04089605, "- N/A -   "
0.61, 14.3896, 0.00118845, NaN, NaN, NaN, 0.0335714, "- N/A -   "
0.67, 15.687, 0.001296743, NaN, NaN, NaN, 0.03112983, "- N/A -   "
0.73, 16.86649, 0.001399483, NaN, NaN, NaN, 0.0286883, "- N/A -   "
0.79, 18.16391, 0.00149112, NaN, NaN, NaN, 0.0323506, "- N/A -   "
0.85, 19.3434, 0.00158275, NaN, NaN, NaN, 0.0372337, "- N/A -   "
0.91, 20.6408, 0.00167993, NaN, NaN, NaN, 0.0372337, "- N/A -   "
0.97, 22.0562, 0.00178267, NaN, NaN, NaN, 0.0372337, "- N/A -   "
1.03, 23.2357, 0.00186875, NaN, NaN, NaN, 0.04211683, "- N/A -   "
1.09, 24.65102, 0.00196316, NaN, NaN, NaN, 0.0445584, "- N/A -   "
1.15, 26.18434, 0.00206868, NaN, NaN, NaN, 0.0433376, "- N/A -   "
1.21, 27.8356, 0.002182527, NaN, NaN, NaN, 0.03601294, "- N/A -   "
1.27, 29.3689, 0.0022936, NaN, NaN, NaN, 0.03112983, "- N/A -   "
1.33, 31.0202, 0.00239911, NaN, NaN, NaN, 0.0299091, "- N/A -   "
1.39, 32.3176, 0.00248797, NaN, NaN, NaN, 0.0335714, "- N/A -   "
1.45, 33.73298, 0.00258238, NaN, NaN, NaN, 0.03601294, "- N/A -   "
1.51, 35.2663, 0.0026879, NaN, NaN, NaN, 0.0335714, "- N/A -   "
1.57, 36.79961, 0.00278786, NaN, NaN, NaN, 0.0335714, "- N/A -   "
1.63, 38.215, 0.00287671, NaN, NaN, NaN, 0.0396753, "- N/A -   "
1.69, 39.7483, 0.00296835, NaN, NaN, NaN, 0.0433376, "- N/A -   "
1.75, 41.39956, 0.00307109, NaN, NaN, NaN, 0.04211683, "- N/A -   "
1.81, 43.1688, 0.00317383, NaN, NaN, NaN, 0.0396753, "- N/A -   "
1.87, 44.82, 0.00327379, NaN, NaN, NaN, 0.0396753, "- N/A -   "
1.93, 46.7072, 0.00338486, NaN, NaN, NaN, 0.0347922, "- N/A -   "
1.99, 48.2405, 0.003482047, NaN, NaN, NaN, 0.03601294, "- N/A -   "
2.05, 50.0097, 0.00357923, NaN, NaN, NaN, 0.0372337, "- N/A -   "
2.11, 51.89689, 0.00368753, NaN, NaN, NaN, 0.0335714, "- N/A -   "
2.17, 53.6661, 0.00379027, NaN, NaN, NaN, 0.0323506, "- N/A -   "
2.23, 55.0815, 0.00388468, NaN, NaN, NaN, 0.0347922, "- N/A -   "
2.29, 56.9686, 0.00398464, NaN, NaN, NaN, 0.0347922, "- N/A -   "
2.35, 58.6199, 0.004084602, NaN, NaN, NaN, 0.0347922, "- N/A -   "
2.41, 60.27116, 0.00417901, NaN, NaN, NaN, 0.0372337, "- N/A -   "
2.47, 62.0404, 0.00427342, NaN, NaN, NaN, 0.0396753, "- N/A -   "
2.53, 63.6916, 0.00436783, NaN, NaN, NaN, 0.0433376, "- N/A -   "
2.59, 65.4608, 0.00447057, NaN, NaN, NaN, 0.04211683, "- N/A -   "
2.65, 67.70185, 0.004584417, NaN, NaN, NaN, 0.0347922, "- N/A -   "
2.71, 69.47106, 0.00468993, NaN, NaN, NaN, 0.0335714, "- N/A -   "
2.77, 71.24027, 0.00478712, NaN, NaN, NaN, 0.0335714, "- N/A -   "
2.83, 73.00948, 0.00489264, NaN, NaN, NaN, 0.0323506, "- N/A -   "
2.89, 75.13254, 0.004998153, NaN, NaN, NaN, 0.0286883, "- N/A -   "
2.95, 76.7838, 0.00509534, NaN, NaN, NaN, 0.0299091, "- N/A -   "
3.01, 78.31712, 0.0051842, NaN, NaN, NaN, 0.03601294, "- N/A -   "
3.07, 79.85043, 0.005270275, NaN, NaN, NaN, 0.04089605, "- N/A -   "
3.13, 81.5017, 0.005359131, NaN, NaN, NaN, 0.04577916, "- N/A -   "
3.19, 83.50681, 0.005459094, NaN, NaN, NaN, 0.04577916, "- N/A -   "
3.25, 85.62987, 0.005570164, NaN, NaN, NaN, 0.04089605, "- N/A -   "
3.31, 87.63497, 0.00567846, NaN, NaN, NaN, 0.0372337, "- N/A -   "
3.37, 89.758, 0.00578953, NaN, NaN, NaN, 0.0323506, "- N/A -   "
3.43, 91.52724, 0.005886714, NaN, NaN, NaN, 0.0335714, "- N/A -   "
3.49, 93.65029, 0.005997784, NaN, NaN, NaN, 0.0286883, "- N/A -   "
3.55, 95.5374, 0.0061033, NaN, NaN, NaN, 0.0274675, "- N/A -   "
3.61, 97.18872, 0.006192156, NaN, NaN, NaN, 0.0323506, "- N/A -   "
3.67, 98.9579, 0.006281012, NaN, NaN, NaN, 0.0372337, "- N/A -   "
3.73, 100.491, 0.00636987, NaN, NaN, NaN, 0.0433376, "- N/A -   "
3.79, 102.496, 0.006467055, NaN, NaN, NaN, 0.0433376, "- N/A -   "
3.85, 104.384, 0.006567018, NaN, NaN, NaN, 0.0445584, "- N/A -   "
3.91, 106.271, 0.00666143, NaN, NaN, NaN, 0.04577916, "- N/A -   "
3.97, 108.512, 0.00676972, NaN, NaN, NaN, 0.04211683, "- N/A -   "
4.03, 110.989, 0.00689467, NaN, NaN, NaN, 0.03112983, "- N/A -   "
4.09, 112.876, 0.00699464, NaN, NaN, NaN, 0.03112983, "- N/A -   "
4.15, 114.999, 0.00710293, NaN, NaN, NaN, 0.0286883, "- N/A -   "
4.21, 116.65, 0.00718901, NaN, NaN, NaN, 0.0335714, "- N/A -   "
4.27, 118.537, 0.0072862, NaN, NaN, NaN, 0.0347922, "- N/A -   "
4.33, 120.424, 0.00738616, NaN, NaN, NaN, 0.0347922, "- N/A -   "
4.39, 122.312, 0.00748057, NaN, NaN, NaN, 0.0372337, "- N/A -   "
4.45, 123.845, 0.007563872, NaN, NaN, NaN, 0.0445584, "- N/A -   "
4.51, 125.614, 0.007658282, NaN, NaN, NaN, 0.0482207, "- N/A -   "
4.57, 127.737, 0.007763798, NaN, NaN, NaN, 0.04577916, "- N/A -   "
4.63, 130.096, 0.007880422, NaN, NaN, NaN, 0.0372337, "- N/A -   "
4.69, 132.219, 0.007994268, NaN, NaN, NaN, 0.0323506, "- N/A -   "
4.75, 134.106, 0.008094232, NaN, NaN, NaN, 0.03112983, "- N/A -   "
4.81, 135.758, 0.008183087, NaN, NaN, NaN, 0.03601294, "- N/A -   "
4.87, 137.6447, 0.008283051, NaN, NaN, NaN, 0.03601294, "- N/A -   "
4.93, 139.65, 0.008391344, NaN, NaN, NaN, 0.0323506, "- N/A -   "
4.99, 141.419, 0.00849131, NaN, NaN, NaN, 0.0335714, "- N/A -   "
5.05, 143.306, 0.008582939, NaN, NaN, NaN, 0.03601294, "- N/A -   "
5.11, 144.957, 0.008671796, NaN, NaN, NaN, 0.04089605, "- N/A -   "
5.17, 146.963, 0.008777313, NaN, NaN, NaN, 0.0396753, "- N/A -   "
5.23, 148.732, 0.008874499, NaN, NaN, NaN, 0.04089605, "- N/A -   "
5.29, 150.737, 0.008980015, NaN, NaN, NaN, 0.0384545, "- N/A -   "
5.35, 152.506, 0.009079979, NaN, NaN, NaN, 0.0372337, "- N/A -   "
5.41, 154.511, 0.009185495, NaN, NaN, NaN, 0.03601294, "- N/A -   "
5.47, 156.2804, 0.009285458, NaN, NaN, NaN, 0.0347922, "- N/A -   "
5.53, 158.2855, 0.009390975, NaN, NaN, NaN, 0.0323506, "- N/A -   "
5.59, 160.055, 0.009490938, NaN, NaN, NaN, 0.0335714, "- N/A -   "
5.65, 161.942, 0.009588123, NaN, NaN, NaN, 0.0335714, "- N/A -   "
5.71, 163.711, 0.009690864, NaN, NaN, NaN, 0.0323506, "- N/A -   "
5.77, 165.4803, 0.009785274, NaN, NaN, NaN, 0.0347922, "- N/A -   "
5.83, 167.132, 0.00987413, NaN, NaN, NaN, 0.0396753, "- N/A -   "
5.89, 168.901, 0.00996854, NaN, NaN, NaN, 0.04211683, "- N/A -   "
5.95, 170.788, 0.0100657, NaN, NaN, NaN, 0.0433376, "- N/A -   "
6.01, 172.557, 0.0101712, NaN, NaN, NaN, 0.04089605, "- N/A -   "
6.07, 174.798, 0.01028509, NaN, NaN, NaN, 0.0347922, "- N/A -   "
6.13, 176.6853, 0.0103934, NaN, NaN, NaN, 0.0323506, "- N/A -   "
6.19, 178.337, 0.0104822, NaN, NaN, NaN, 0.03601294, "- N/A -   "
6.25, 180.342, 0.0105878, NaN, NaN, NaN, 0.0347922, "- N/A -   "
6.31, 182.465, 0.0107016, NaN, NaN, NaN, 0.0274675, "- N/A -   "
6.37, 184.116, 0.010796, NaN, NaN, NaN, 0.0299091, "- N/A -   "
6.43, 185.767, 0.0108849, NaN, NaN, NaN, 0.0347922, "- N/A -   "
6.49, 187.183, 0.0109654, NaN, NaN, NaN, 0.0433376, "- N/A -   "
6.55, 188.834, 0.01106258, NaN, NaN, NaN, 0.0445584, "- N/A -   "
6.61, 190.721, 0.0111625, NaN, NaN, NaN, 0.04577916, "- N/A -   "
6.67, 193.08, 0.0112736, NaN, NaN, NaN, 0.0396753, "- N/A -   "
6.73, 195.085, 0.0113847, NaN, NaN, NaN, 0.03601294, "- N/A -   "
6.79, 196.972, 0.0114874, NaN, NaN, NaN, 0.0347922, "- N/A -   "
6.85, 199.095, 0.0115929, NaN, NaN, NaN, 0.03112983, "- N/A -   "
6.91, 200.865, 0.0116957, NaN, NaN, NaN, 0.0299091, "- N/A -   "
6.97, 202.9876, 0.0118012, NaN, NaN, NaN, 0.0274675, "- N/A -   "
7.03, 204.639, 0.0118928, NaN, NaN, NaN, 0.03112983, "- N/A -   "
7.09, 206.172, 0.0119817, NaN, NaN, NaN, 0.03601294, "- N/A -   "
7.15, 207.823, 0.0120678, NaN, NaN, NaN, 0.04211683, "- N/A -   "
7.21, 209.711, 0.0121649, NaN, NaN, NaN, 0.0445584, "- N/A -   "
7.27, 211.598, 0.0122649, NaN, NaN, NaN, 0.0433376, "- N/A -   "
7.33, 213.721, 0.01237043, NaN, NaN, NaN, 0.04089605, "- N/A -   "
7.39, 215.962, 0.0124815, NaN, NaN, NaN, 0.03601294, "- N/A -   "
7.45, 218.203, 0.0125953, NaN, NaN, NaN, 0.0299091, "- N/A -   "
7.51, 220.09, 0.0127009, NaN, NaN, NaN, 0.0274675, "- N/A -   "
7.57, 221.977, 0.0127953, NaN, NaN, NaN, 0.03112983, "- N/A -   "
7.63, 223.6284, 0.01288413, NaN, NaN, NaN, 0.0347922, "- N/A -   "
7.69, 225.751, 0.0129869, NaN, NaN, NaN, 0.0347922, "- N/A -   "
7.75, 227.639, 0.0130868, NaN, NaN, NaN, 0.0347922, "- N/A -   "
7.81, 229.526, 0.0131757, NaN, NaN, NaN, 0.0384545, "- N/A -   "
7.87, 231.295, 0.0132673, NaN, NaN, NaN, 0.0433376, "- N/A -   "
7.93, 233.0642, 0.0133617, NaN, NaN, NaN, 0.0445584, "- N/A -   "
7.99, 235.3052, 0.0134672, NaN, NaN, NaN, 0.04211683, "- N/A -   "
8.05, 237.664, 0.0135866, NaN, NaN, NaN, 0.0347922, "- N/A -   "
8.11, 240.0231, 0.0136977, NaN, NaN, NaN, 0.03112983, "- N/A -   "
8.17, 241.91, 0.0137921, NaN, NaN, NaN, 0.0323506, "- N/A -   "
8.23, 243.678, 0.01388376, NaN, NaN, NaN, 0.03601294, "- N/A -   "
8.29, 245.6813, 0.0139837, NaN, NaN, NaN, 0.03601294, "- N/A -   "
8.35, 247.92, 0.0140948, NaN, NaN, NaN, 0.03112983, "- N/A -   "
8.41, 249.923, 0.0141892, NaN, NaN, NaN, 0.0335714, "- N/A -   "
8.47, 251.5726, 0.0142753, NaN, NaN, NaN, 0.0396753, "- N/A -   "
8.53, 253.34, 0.0143697, NaN, NaN, NaN, 0.0433376, "- N/A -   "
8.59, 255.579, 0.0144697, NaN, NaN, NaN, 0.04211683, "- N/A -   "
8.65, 257.6996, 0.0145724, NaN, NaN, NaN, 0.04089605, "- N/A -   "
8.71, 259.82, 0.0146779, NaN, NaN, NaN, 0.0384545, "- N/A -   "
8.77, 262.059, 0.0147862, NaN, NaN, NaN, 0.0347922, "- N/A -   "
8.79, 262.766, 0.0148195, NaN, NaN, NaN, 0.0347922, "- N/A -   "
8.8, 263.12, 0.014839, NaN, NaN, NaN, 0.0347922, "- N/A -   "
8.81, 263.473, 0.0148528, NaN, NaN, NaN, 0.0347922, "- N/A -   "
8.82, 263.8265, 0.0148695, NaN, NaN, NaN, 0.0347922, "- N/A -   "
8.83, 264.0622, 0.0148862, NaN, NaN, NaN, 0.03601294, "- N/A -   "
8.84, 264.533, 0.0149028, NaN, NaN, NaN, 0.0347922, "- N/A -   "
8.85, 264.769, 0.0149195, NaN, NaN, NaN, 0.0347922, "- N/A -   "
8.86, 265.0048, 0.0149361, NaN, NaN, NaN, 0.0347922, "- N/A -   "
8.87, 265.476, 0.01495281, NaN, NaN, NaN, 0.03601294, "- N/A -   "
8.88, 265.712, 0.0149695, NaN, NaN, NaN, 0.0347922, "- N/A -   "
8.89, 266.183, 0.0149889, NaN, NaN, NaN, 0.0347922, "- N/A -   "
8.9, 266.4187, 0.0150056, NaN, NaN, NaN, 0.0335714, "- N/A -   "
8.91, 266.89, 0.0150222, NaN, NaN, NaN, 0.0335714, "- N/A -   "
8.92, 267.3613, 0.0150417, NaN, NaN, NaN, 0.0335714, "- N/A -   "
8.93, 267.597, 0.0150583, NaN, NaN, NaN, 0.0323506, "- N/A -   "
8.94, 268.068, 0.015075, NaN, NaN, NaN, 0.0323506, "- N/A -   "
8.95, 268.304, 0.0150889, NaN, NaN, NaN, 0.0335714, "- N/A -   "
8.96, 268.657, 0.0151055, NaN, NaN, NaN, 0.0347922, "- N/A -   "
8.97, 269.011, 0.0151194, NaN, NaN, NaN, 0.0347922, "- N/A -   "
8.98, 269.247, 0.0151361, NaN, NaN, NaN, 0.0347922, "- N/A -   "
8.99, 269.6, 0.0151527, NaN, NaN, NaN, 0.0347922, "- N/A -   "
9, 269.836, 0.0151694, NaN, NaN, NaN, 0.0347922, "- N/A -   "
9.01, 270.189, 0.0151833, NaN, NaN, NaN, 0.03601294, "- N/A -   "
9.02, 270.425, 0.01519994, NaN, NaN, NaN, 0.03601294, "- N/A -   "
9.03, 270.8961, 0.0152166, NaN, NaN, NaN, 0.03601294, "- N/A -   "
9.04, 271.367, 0.015236, NaN, NaN, NaN, 0.03601294, "- N/A -   "
9.05, 271.603, 0.0152527, NaN, NaN, NaN, 0.0347922, "- N/A -   "
9.06, 271.9565, 0.01526936, NaN, NaN, NaN, 0.0347922, "- N/A -   "
9.07, 272.31, 0.015286, NaN, NaN, NaN, 0.0347922, "- N/A -   "
9.08, 272.7813, 0.0152999, NaN, NaN, NaN, 0.03601294, "- N/A -   "
9.09, 272.899, 0.0153166, NaN, NaN, NaN, 0.0372337, "- N/A -   "
9.1, 273.253, 0.0153332, NaN, NaN, NaN, 0.0372337, "- N/A -   "
9.11, 273.606, 0.0153499, NaN, NaN, NaN, 0.0372337, "- N/A -   "
9.12, 273.96, 0.0153665, NaN, NaN, NaN, 0.03601294, "- N/A -   "
9.13, 274.195, 0.0153832, NaN, NaN, NaN, 0.03601294, "- N/A -   "
9.14, 274.549, 0.0153999, NaN, NaN, NaN, 0.0372337, "- N/A -   "
9.15, 275.02, 0.01541375, NaN, NaN, NaN, 0.0372337, "- N/A -   "
9.16, 275.256, 0.0154304, NaN, NaN, NaN, 0.0372337, "- N/A -   "
9.17, 275.609, 0.0154443, NaN, NaN, NaN, 0.0384545, "- N/A -   "
9.18, 275.963, 0.015461, NaN, NaN, NaN, 0.0384545, "- N/A -   "
9.19, 276.3161, 0.0154776, NaN, NaN, NaN, 0.0396753, "- N/A -   "
9.2, 276.552, 0.0154915, NaN, NaN, NaN, 0.0396753, "- N/A -   "
9.21, 276.9052, 0.01550816, NaN, NaN, NaN, 0.04089605, "- N/A -   "
9.22, 277.2587, 0.015522, NaN, NaN, NaN, 0.04089605, "- N/A -   "
9.23, 277.494, 0.0155415, NaN, NaN, NaN, 0.04089605, "- N/A -   "
9.24, 277.966, 0.0155581, NaN, NaN, NaN, 0.04089605, "- N/A -   "
9.25, 278.319, 0.0155748, NaN, NaN, NaN, 0.04089605, "- N/A -   "
9.26, 278.6726, 0.0155915, NaN, NaN, NaN, 0.0396753, "- N/A -   "
9.27, 278.908, 0.0156053, NaN, NaN, NaN, 0.04089605, "- N/A -   "
9.28, 279.38, 0.0156248, NaN, NaN, NaN, 0.0396753, "- N/A -   "
9.29, 279.615, 0.0156414, NaN, NaN, NaN, 0.0396753, "- N/A -   "
9.3, 280.087, 0.0156581, NaN, NaN, NaN, 0.04089605, "- N/A -   "
9.31, 280.44, 0.0156748, NaN, NaN, NaN, 0.0396753, "- N/A -   "
9.32, 280.911, 0.0156914, NaN, NaN, NaN, 0.0396753, "- N/A -   "
9.33, 281.147, 0.0157109, NaN, NaN, NaN, 0.0396753, "- N/A -   "
9.34, 281.5, 0.0157247, NaN, NaN, NaN, 0.0396753, "- N/A -   "
9.35, 281.8539, 0.0157442, NaN, NaN, NaN, 0.0384545, "- N/A -   "
9.36, 282.325, 0.0157608, NaN, NaN, NaN, 0.0384545, "- N/A -   "
9.37, 282.6787, 0.0157803, NaN, NaN, NaN, 0.0384545, "- N/A -   "
9.38, 283.032, 0.0157969, NaN, NaN, NaN, 0.0372337, "- N/A -   "
9.39, 283.503, 0.01581638, NaN, NaN, NaN, 0.0372337, "- N/A -   "
9.4, 283.857, 0.015833, NaN, NaN, NaN, 0.0372337, "- N/A -   "
9.41, 284.21, 0.0158497, NaN, NaN, NaN, 0.03601294, "- N/A -   "
9.42, 284.446, 0.01586636, NaN, NaN, NaN, 0.03601294, "- N/A -   "
9.43, 284.8, 0.015883, NaN, NaN, NaN, 0.03601294, "- N/A -   "
9.44, 285.271, 0.0158997, NaN, NaN, NaN, 0.03601294, "- N/A -   "
9.45, 285.624, 0.0159163, NaN, NaN, NaN, 0.03601294, "- N/A -   "
9.46, 285.86, 0.01593578, NaN, NaN, NaN, 0.0347922, "- N/A -   "
9.47, 286.213, 0.01595244, NaN, NaN, NaN, 0.0347922, "- N/A -   "
9.48, 286.685, 0.0159691, NaN, NaN, NaN, 0.0347922, "- N/A -   "
9.49, 287.156, 0.0159913, NaN, NaN, NaN, 0.0335714, "- N/A -   "
9.5, 287.51, 0.016008, NaN, NaN, NaN, 0.0323506, "- N/A -   "
9.51, 287.863, 0.0160246, NaN, NaN, NaN, 0.0323506, "- N/A -   "
9.64, 291.8691, 0.0162273, NaN, NaN, NaN, 0.0384545, "- N/A -   "
9.77, 296.7, 0.0164495, NaN, NaN, NaN, 0.03601294, "- N/A -   "
9.9, 300.9417, 0.016655, NaN, NaN, NaN, 0.04211683, "- N/A -   "
10.03, 305.537, 0.0168688, NaN, NaN, NaN, 0.04211683, "- N/A -   "
10.16, 310.7213, 0.0171076, NaN, NaN, NaN, 0.0323506, "- N/A -   "
10.29, 315.67, 0.0173353, NaN, NaN, NaN, 0.0274675, "- N/A -   "
10.42, 320.03, 0.0175407, NaN, NaN, NaN, 0.0323506, "- N/A -   "
10.55, 324.036, 0.0177323, NaN, NaN, NaN, 0.0433376, "- N/A -   "
10.68, 328.7487, 0.0179461, NaN, NaN, NaN, 0.04577916, "- N/A -   "
10.81, 334.051, 0.0181822, NaN, NaN, NaN, 0.03601294, "- N/A -   "
10.94, 339.1174, 0.01841542, NaN, NaN, NaN, 0.0286883, "- N/A -   "
11.07, 343.713, 0.0186237, NaN, NaN, NaN, 0.0335714, "- N/A -   "
11.2, 348.3078, 0.0188319, NaN, NaN, NaN, 0.03601294, "- N/A -   "
11.33, 352.55, 0.01902908, NaN, NaN, NaN, 0.04577916, "- N/A -   "
11.46, 358.0874, 0.0192679, NaN, NaN, NaN, 0.0347922, "- N/A -   "
11.59, 363.154, 0.0194928, NaN, NaN, NaN, 0.03112983, "- N/A -   "
11.72, 367.985, 0.0197094, NaN, NaN, NaN, 0.03112983, "- N/A -   "
11.85, 372.6978, 0.01992042, NaN, NaN, NaN, 0.0347922, "- N/A -   "
11.98, 377.175, 0.0201176, NaN, NaN, NaN, 0.04211683, "- N/A -   "
12.11, 382.242, 0.0203397, NaN, NaN, NaN, 0.0396753, "- N/A -   "
12.24, 387.308, 0.0205674, NaN, NaN, NaN, 0.03601294, "- N/A -   "
12.37, 392.61, 0.0207923, NaN, NaN, NaN, 0.03112983, "- N/A -   "
12.5, 397.441, 0.0210089, NaN, NaN, NaN, 0.03112983, "- N/A -   "
12.63, 402.0365, 0.0212116, NaN, NaN, NaN, 0.0384545, "- N/A -   "
12.76, 406.632, 0.0214115, NaN, NaN, NaN, 0.04699994, "- N/A -   "
12.89, 412.1696, 0.02164478, NaN, NaN, NaN, 0.0384545, "- N/A -   "
13.02, 417.4717, 0.0218725, NaN, NaN, NaN, 0.0335714, "- N/A -   "
13.15, 422.7739, 0.0220974, NaN, NaN, NaN, 0.0299091, "- N/A -   "
13.28, 427.369, 0.0222973, NaN, NaN, NaN, 0.0372337, "- N/A -   "
13.41, 431.7287, 0.0224861, NaN, NaN, NaN, 0.0494415, "- N/A -   "
13.54, 437.62, 0.02273049, NaN, NaN, NaN, 0.0372337, "- N/A -   "
13.67, 443.1578, 0.0229665, NaN, NaN, NaN, 0.0286883, "- N/A -   "
13.8, 448.224, 0.0231831, NaN, NaN, NaN, 0.0286883, "- N/A -   "
13.93, 452.82, 0.0233803, NaN, NaN, NaN, 0.0372337, "- N/A -   "
14.06, 457.65, 0.023583, NaN, NaN, NaN, 0.0433376, "- N/A -   "
14.19, 462.9526, 0.0238051, NaN, NaN, NaN, 0.04089605, "- N/A -   "
14.32, 468.962, 0.0240522, NaN, NaN, NaN, 0.0286883, "- N/A -   "
14.45, 473.7926, 0.0242577, NaN, NaN, NaN, 0.0335714, "- N/A -   "
14.58, 478.7413, 0.0244632, NaN, NaN, NaN, 0.0384545, "- N/A -   "
14.71, 483.808, 0.0246714, NaN, NaN, NaN, 0.04089605, "- N/A -   "
14.84, 489.11, 0.0248908, NaN, NaN, NaN, 0.0396753, "- N/A -   "
14.97, 495.237, 0.0251379, NaN, NaN, NaN, 0.0274675, "- N/A -   "
15.1, 499.5965, 0.0253212, NaN, NaN, NaN, 0.04089605, "- N/A -   "
15.23, 505.252, 0.0255517, NaN, NaN, NaN, 0.0347922, "- N/A -   "
15.36, 510.083, 0.0257516, NaN, NaN, NaN, 0.04211683, "- N/A -   "
15.49, 515.6291, 0.0259793, NaN, NaN, NaN, 0.0372337, "- N/A -   "
15.62, 520.9517, 0.0261959, NaN, NaN, NaN, 0.0372337, "- N/A -   "
15.75, 526.5109, 0.0264208, NaN, NaN, NaN, 0.0335714, "- N/A -   "
15.88, 531.834, 0.0266402, NaN, NaN, NaN, 0.0323506, "- N/A -   "
16.01, 536.9196, 0.0268484, NaN, NaN, NaN, 0.03601294, "- N/A -   "
16.14, 541.8874, 0.0270511, NaN, NaN, NaN, 0.04211683, "- N/A -   "
16.27, 547.801, 0.0272788, NaN, NaN, NaN, 0.0372337, "- N/A -   "
16.4, 553.479, 0.0275121, NaN, NaN, NaN, 0.03112983, "- N/A -   "
16.53, 559.038, 0.0277342, NaN, NaN, NaN, 0.0274675, "- N/A -   "
16.66, 563.888, 0.0279369, NaN, NaN, NaN, 0.0335714, "- N/A -   "
16.79, 568.7371, 0.02813405, NaN, NaN, NaN, 0.0433376, "- N/A -   "
16.92, 574.4146, 0.02835619, NaN, NaN, NaN, 0.0396753, "- N/A -   "
17.05, 579.9738, 0.02857833, NaN, NaN, NaN, 0.0372337, "- N/A -   "
17.18, 586.006, 0.0288144, NaN, NaN, NaN, 0.03112983, "- N/A -   "
17.31, 590.974, 0.0290171, NaN, NaN, NaN, 0.03601294, "- N/A -   "
17.44, 595.9418, 0.0292142, NaN, NaN, NaN, 0.0445584, "- N/A -   "
17.57, 601.3827, 0.0294363, NaN, NaN, NaN, 0.04211683, "- N/A -   "
17.7, 607.8881, 0.0296835, NaN, NaN, NaN, 0.0286883, "- N/A -   "
17.83, 613.329, 0.02989451, NaN, NaN, NaN, 0.03112983, "- N/A -   "
17.96, 618.4151, 0.03009999, NaN, NaN, NaN, 0.03601294, "- N/A -   "
18.09, 623.738, 0.0303055, NaN, NaN, NaN, 0.04089605, "- N/A -   "
18.22, 629.06, 0.0305165, NaN, NaN, NaN, 0.0433376, "- N/A -   "
18.35, 635.3293, 0.0307581, NaN, NaN, NaN, 0.0323506, "- N/A -   "
18.48, 640.415, 0.03096356, NaN, NaN, NaN, 0.0372337, "- N/A -   "
18.61, 646.3294, 0.0311885, NaN, NaN, NaN, 0.0335714, "- N/A -   "
18.74, 651.2972, 0.0313856, NaN, NaN, NaN, 0.04211683, "- N/A -   "
18.87, 657.093, 0.0316105, NaN, NaN, NaN, 0.0384545, "- N/A -   "
19, 662.8887, 0.0318327, NaN, NaN, NaN, 0.03601294, "- N/A -   "
19.13, 668.566, 0.0320604, NaN, NaN, NaN, 0.0323506, "- N/A -   "
19.26, 674.007, 0.03227141, NaN, NaN, NaN, 0.0335714, "- N/A -   "
19.39, 679.685, 0.0324908, NaN, NaN, NaN, 0.0335714, "- N/A -   "
19.52, 684.6524, 0.0326879, NaN, NaN, NaN, 0.04089605, "- N/A -   "
19.65, 690.3299, 0.0329017, NaN, NaN, NaN, 0.0433376, "- N/A -   "
19.78, 696.599, 0.0331378, NaN, NaN, NaN, 0.0335714, "- N/A -   "
19.91, 702.0397, 0.0333516, NaN, NaN, NaN, 0.0347922, "- N/A -   "
20.04, 707.7171, 0.0335737, NaN, NaN, NaN, 0.0323506, "- N/A -   "
20.17, 712.448, 0.0337653, NaN, NaN, NaN, 0.0433376, "- N/A -   "
20.3, 718.4807, 0.0339874, NaN, NaN, NaN, 0.04089605, "- N/A -   "
20.43, 724.6313, 0.0342207, NaN, NaN, NaN, 0.0347922, "- N/A -   "
20.56, 730.782, 0.0344567, NaN, NaN, NaN, 0.0250259, "- N/A -   "
20.69, 735.7497, 0.0346511, NaN, NaN, NaN, 0.0347922, "- N/A -   "
20.82, 740.836, 0.0348482, NaN, NaN, NaN, 0.0433376, "- N/A -   "
20.95, 746.513, 0.0350676, NaN, NaN, NaN, 0.0433376, "- N/A -   "
21.08, 753.019, 0.0353092, NaN, NaN, NaN, 0.0323506, "- N/A -   "
21.21, 758.5779, 0.03552576, NaN, NaN, NaN, 0.0323506, "- N/A -   "
21.34, 764.0188, 0.03572847, NaN, NaN, NaN, 0.0372337, "- N/A -   "
21.47, 769.578, 0.0359395, NaN, NaN, NaN, 0.0396753, "- N/A -   "
21.6, 774.901, 0.03614498, NaN, NaN, NaN, 0.0445584, "- N/A -   "
21.73, 781.4061, 0.0363893, NaN, NaN, NaN, 0.0335714, "- N/A -   "
21.86, 786.965, 0.03660314, NaN, NaN, NaN, 0.0347922, "- N/A -   "
21.99, 792.9976, 0.03683084, NaN, NaN, NaN, 0.03112983, "- N/A -   "
22.12, 797.9654, 0.03702521, NaN, NaN, NaN, 0.0396753, "- N/A -   "
22.25, 803.6429, 0.03723902, NaN, NaN, NaN, 0.04211683, "- N/A -   "
22.38, 809.557, 0.03746116, NaN, NaN, NaN, 0.0384545, "- N/A -   "
22.51, 815.234, 0.0376777, NaN, NaN, NaN, 0.0384545, "- N/A -   "
22.64, 821.0302, 0.0378999, NaN, NaN, NaN, 0.03601294, "- N/A -   "
22.77, 827.0625, 0.0381276, NaN, NaN, NaN, 0.03112983, "- N/A -   "
22.9, 832.149, 0.03832473, NaN, NaN, NaN, 0.0396753, "- N/A -   "
23.03, 837.5895, 0.03853576, NaN, NaN, NaN, 0.0433376, "- N/A -   "
23.16, 844.095, 0.03877456, NaN, NaN, NaN, 0.0323506, "- N/A -   "
23.29, 849.891, 0.0389967, NaN, NaN, NaN, 0.0299091, "- N/A -   "
23.42, 855.5682, 0.0392161, NaN, NaN, NaN, 0.0286883, "- N/A -   "
23.55, 860.4177, 0.03940488, NaN, NaN, NaN, 0.04211683, "- N/A -   "
23.68, 865.9769, 0.0396131, NaN, NaN, NaN, 0.0445584, "- N/A -   "
23.81, 872.246, 0.03984639, NaN, NaN, NaN, 0.0372337, "- N/A -   "
23.94, 878.3964, 0.04007686, NaN, NaN, NaN, 0.03112983, "- N/A -   "
24.07, 884.074, 0.04029622, NaN, NaN, NaN, 0.0299091, "- N/A -   "
24.2, 888.9234, 0.04048782, NaN, NaN, NaN, 0.04089605, "- N/A -   "
24.33, 894.4826, 0.0406989, NaN, NaN, NaN, 0.0445584, "- N/A -   "
24.46, 900.8698, 0.0409349, NaN, NaN, NaN, 0.0347922, "- N/A -   "
24.59, 907.1387, 0.04116812, NaN, NaN, NaN, 0.0274675, "- N/A -   "
24.72, 912.225, 0.04136805, NaN, NaN, NaN, 0.0347922, "- N/A -   "
24.85, 917.784, 0.0415819, NaN, NaN, NaN, 0.0372337, "- N/A -   "
24.98, 922.9883, 0.0417818, NaN, NaN, NaN, 0.0433376, "- N/A -   "
25.11, 929.257, 0.0420123, NaN, NaN, NaN, 0.0372337, "- N/A -   "
25.24, 935.053, 0.0422344, NaN, NaN, NaN, 0.0347922, "- N/A -   "
25.37, 940.6121, 0.0424482, NaN, NaN, NaN, 0.0372337, "- N/A -   "
25.5, 946.5262, 0.0426703, NaN, NaN, NaN, 0.0335714, "- N/A -   "
25.63, 951.9671, 0.0428758, NaN, NaN, NaN, 0.0384545, "- N/A -   "
25.76, 957.645, 0.0430952, NaN, NaN, NaN, 0.0372337, "- N/A -   "
25.89, 963.677, 0.0433173, NaN, NaN, NaN, 0.0347922, "- N/A -   "
26.02, 969.591, 0.0435422, NaN, NaN, NaN, 0.0323506, "- N/A -   "
26.15, 975.15, 0.0437561, NaN, NaN, NaN, 0.0335714, "- N/A -   "
26.28, 980.3545, 0.043956, NaN, NaN, NaN, 0.04089605, "- N/A -   "
26.41, 985.6771, 0.04416146, NaN, NaN, NaN, 0.04699994, "- N/A -   "
26.54, 992.1826, 0.0443975, NaN, NaN, NaN, 0.0372337, "- N/A -   "
26.67, 998.0966, 0.0446196, NaN, NaN, NaN, 0.03601294, "- N/A -   "
26.8, 1004.01, 0.0448445, NaN, NaN, NaN, 0.03112983, "- N/A -   "
26.93, 1009.1, 0.0450417, NaN, NaN, NaN, 0.0396753, "- N/A -   "
27.06, 1014.31, 0.0452388, NaN, NaN, NaN, 0.0482207, "- N/A -   "
27.19, 1021.23, 0.0454887, NaN, NaN, NaN, 0.0335714, "- N/A -   "
27.32, 1027.191, 0.0457109, NaN, NaN, NaN, 0.03112983, "- N/A -   "
27.45, 1033.03, 0.0459358, NaN, NaN, NaN, 0.0286883, "- N/A -   "
27.58, 1037.92, 0.04612185, NaN, NaN, NaN, 0.04089605, "- N/A -   "
27.71, 1043.29, 0.0463245, NaN, NaN, NaN, 0.04699994, "- N/A -   "
27.84, 1049.37, 0.0465495, NaN, NaN, NaN, 0.0433376, "- N/A -   "
27.97, 1056.29, 0.0467994, NaN, NaN, NaN, 0.0286883, "- N/A -   "
28.023, 1058.55, 0.0468855, NaN, NaN, NaN, 0.0299091, "- N/A -   "