File: 2_Tensile_Data/Hamel_ForceTest_Bolt3_Test7.csv
Time, Load (lb), Position (in), AxialStrain (in), TransverseStrain (in), Auxiliary (), Control Out (V), Stress (psi)
0.0, 11.6768, 0.0, NaN, NaN, NaN, -0.006714277, "- N/A -   "
0.01, 11.7947, 2.776752E-6, NaN, NaN, NaN, -6.103888E-4, "- N/A -   "
0.02, 11.6768, 2.776752E-6, NaN, NaN, NaN, 0.006714277, "- N/A -   "
0.03, 11.7947, 5.553504E-6, NaN, NaN, NaN, 0.0164805, "- N/A -   "
0.04, 11.7947, 8.330256E-6, NaN, NaN, NaN, 0.0347922, "- N/A -   "
0.05, 11.7947, 1.38838e-05, NaN, NaN, NaN, 0.05188305, "- N/A -   "
0.06, 12.0306, 2.77675e-05, NaN, NaN, NaN, 0.0653116, "- N/A -   "
0.07, 12.3845, 4.442803E-5, NaN, NaN, NaN, 0.07751938, "- N/A -   "
0.08, 12.6204, 6.6642e-05, NaN, NaN, NaN, 0.08850638, "- N/A -   "
0.09, 12.9742, 9.16328e-05, NaN, NaN, NaN, 0.095831, "- N/A -   "
0.1, 13.446, 0.000122177, NaN, NaN, NaN, 0.101935, "- N/A -   "
0.11, 13.7999, 0.000152721, NaN, NaN, NaN, 0.09949338, "- N/A -   "
0.12, 14.2716, 0.000183266, NaN, NaN, NaN, 0.09461027, "- N/A -   "
0.13, 14.6255, 0.000211033, NaN, NaN, NaN, 0.0897272, "- N/A -   "
0.14, 14.9793, 2.360239E-4, NaN, NaN, NaN, 0.08606482, "- N/A -   "
0.15, 15.3332, 2.582379E-4, NaN, NaN, NaN, 0.08240249, "- N/A -   "
0.16, 15.5691, 2.832287E-4, NaN, NaN, NaN, 0.07874016, "- N/A -   "
0.17, 15.9229, 3.054427E-4, NaN, NaN, NaN, 0.0762986, "- N/A -   "
0.18, 16.3947, 0.000327657, NaN, NaN, NaN, 0.07385705, "- N/A -   "
0.19, 16.5126, 0.000349871, NaN, NaN, NaN, 0.07141549, "- N/A -   "
0.2, 16.86649, 3.69308E-4, NaN, NaN, NaN, 0.0701947, "- N/A -   "
0.21, 17.1024, 0.000388745, NaN, NaN, NaN, 0.0689739, "- N/A -   "
0.22, 17.3383, 0.000410959, NaN, NaN, NaN, 0.06775316, "- N/A -   "
0.23, 17.6921, 0.000430397, NaN, NaN, NaN, 0.06653238, "- N/A -   "
0.24, 18.046, 0.000452611, NaN, NaN, NaN, 0.0640908, "- N/A -   "
0.25, 18.2819, 0.000469271, NaN, NaN, NaN, 0.06287005, "- N/A -   "
0.26, 18.5178, 4.887083E-4, NaN, NaN, NaN, 0.06164927, "- N/A -   "
0.27, 18.8716, 0.000510922, NaN, NaN, NaN, 0.0604285, "- N/A -   "
0.28, 19.1075, 0.00053036, NaN, NaN, NaN, 0.0579869, "- N/A -   "
0.29, 19.3434, 0.000549797, NaN, NaN, NaN, 0.05676616, "- N/A -   "
0.3, 19.8152, 5.720109E-4, NaN, NaN, NaN, 0.0543246, "- N/A -   "
0.31, 20.05107, 5.942249E-4, NaN, NaN, NaN, 0.05188305, "- N/A -   "
0.32, 20.4049, 0.000619216, NaN, NaN, NaN, 0.0494415, "- N/A -   "
0.33, 20.6408, 0.000638653, NaN, NaN, NaN, 0.0482207, "- N/A -   "
0.34, 20.99465, 6.608669E-4, NaN, NaN, NaN, 0.04577916, "- N/A -   "
0.35, 21.2305, 6.803042E-4, NaN, NaN, NaN, 0.0433376, "- N/A -   "
0.36, 21.5844, 7.025182E-4, NaN, NaN, NaN, 0.04211683, "- N/A -   "
0.37, 21.8203, 7.191787E-4, NaN, NaN, NaN, 0.04089605, "- N/A -   "
0.38, 22.0562, 7.38616E-4, NaN, NaN, NaN, 0.0396753, "- N/A -   "
0.39, 22.41, 0.000758053, NaN, NaN, NaN, 0.0396753, "- N/A -   "
0.43, 23.4715, 8.302488E-4, NaN, NaN, NaN, 0.0372337, "- N/A -   "
0.47, 24.4151, 8.968908E-4, NaN, NaN, NaN, 0.03601294, "- N/A -   "
0.51, 25.4767, 9.663096E-4, NaN, NaN, NaN, 0.0347922, "- N/A -   "
0.55, 26.5382, 0.00104406, NaN, NaN, NaN, 0.03112983, "- N/A -   "
0.59, 27.5997, 0.00111348, NaN, NaN, NaN, 0.0299091, "- N/A -   "
0.63, 28.54329, 0.00118012, NaN, NaN, NaN, 0.0299091, "- N/A -   "
0.67, 29.3689, 0.00123843, NaN, NaN, NaN, 0.0323506, "- N/A -   "
0.71, 30.1946, 0.00129119, NaN, NaN, NaN, 0.0384545, "- N/A -   "
0.75, 31.1381, 0.00134672, NaN, NaN, NaN, 0.0433376, "- N/A -   "
0.79, 31.9638, 0.00140781, NaN, NaN, NaN, 0.04577916, "- N/A -   "
0.83, 32.9073, 0.00147168, NaN, NaN, NaN, 0.04699994, "- N/A -   "
0.87, 33.8509, 0.00153832, NaN, NaN, NaN, 0.04699994, "- N/A -   "
0.91, 35.0304, 0.00161607, NaN, NaN, NaN, 0.04211683, "- N/A -   "
0.95, 36.0919, 0.00169382, NaN, NaN, NaN, 0.0384545, "- N/A -   "
0.99, 37.2714, 0.00176601, NaN, NaN, NaN, 0.03601294, "- N/A -   "
1.03, 38.215, 0.00183266, NaN, NaN, NaN, 0.03601294, "- N/A -   "
1.07, 39.15856, 0.0018993, NaN, NaN, NaN, 0.03601294, "- N/A -   "
1.11, 40.22009, 0.00197427, NaN, NaN, NaN, 0.03112983, "- N/A -   "
1.15, 41.39956, 0.00205202, NaN, NaN, NaN, 0.0262467, "- N/A -   "
1.19, 42.3431, 0.00211866, NaN, NaN, NaN, 0.0274675, "- N/A -   "
1.23, 43.2867, 0.00217975, NaN, NaN, NaN, 0.0286883, "- N/A -   "
1.27, 44.2303, 0.00224084, NaN, NaN, NaN, 0.0323506, "- N/A -   "
1.31, 45.17388, 0.00230193, NaN, NaN, NaN, 0.0335714, "- N/A -   "
1.35, 45.8816, 0.00235746, NaN, NaN, NaN, 0.0384545, "- N/A -   "
1.39, 46.9431, 0.00241855, NaN, NaN, NaN, 0.04089605, "- N/A -   "
1.43, 47.8867, 0.00247964, NaN, NaN, NaN, 0.0433376, "- N/A -   "
1.47, 48.83025, 0.0025435, NaN, NaN, NaN, 0.04577916, "- N/A -   "
1.51, 50.0097, 0.00261292, NaN, NaN, NaN, 0.0433376, "- N/A -   "
1.55, 51.0713, 0.00267679, NaN, NaN, NaN, 0.0445584, "- N/A -   "
1.59, 52.1328, 0.00274621, NaN, NaN, NaN, 0.0445584, "- N/A -   "
1.63, 53.19431, 0.00281563, NaN, NaN, NaN, 0.04211683, "- N/A -   "
1.67, 54.6097, 0.00289338, NaN, NaN, NaN, 0.0372337, "- N/A -   "
1.71, 55.9071, 0.002973901, NaN, NaN, NaN, 0.0323506, "- N/A -   "
1.75, 56.9686, 0.003040543, NaN, NaN, NaN, 0.03112983, "- N/A -   "
1.79, 58.1481, 0.003112739, NaN, NaN, NaN, 0.0299091, "- N/A -   "
1.83, 59.2096, 0.003179381, NaN, NaN, NaN, 0.0286883, "- N/A -   "
1.87, 60.5071, 0.003243246, NaN, NaN, NaN, 0.0299091, "- N/A -   "
1.91, 61.45063, 0.003301558, NaN, NaN, NaN, 0.0335714, "- N/A -   "
1.95, 62.5122, 0.00336542, NaN, NaN, NaN, 0.03601294, "- N/A -   "
1.99, 63.6916, 0.00342929, NaN, NaN, NaN, 0.03601294, "- N/A -   "
2.03, 64.87111, 0.00349593, NaN, NaN, NaN, 0.03601294, "- N/A -   "
2.07, 65.93263, 0.0035598, NaN, NaN, NaN, 0.0372337, "- N/A -   "
2.11, 66.99416, 0.00361811, NaN, NaN, NaN, 0.04089605, "- N/A -   "
2.15, 67.9377, 0.0036792, NaN, NaN, NaN, 0.0433376, "- N/A -   "
2.19, 69.11722, 0.00374306, NaN, NaN, NaN, 0.0445584, "- N/A -   "
2.23, 70.29669, 0.00381248, NaN, NaN, NaN, 0.0433376, "- N/A -   "
2.27, 71.71206, 0.00389023, NaN, NaN, NaN, 0.0384545, "- N/A -   "
2.31, 73.00948, 0.003965202, NaN, NaN, NaN, 0.0347922, "- N/A -   "
2.35, 74.42485, 0.00404295, NaN, NaN, NaN, 0.03112983, "- N/A -   "
2.39, 75.7223, 0.00411237, NaN, NaN, NaN, 0.0299091, "- N/A -   "
2.43, 76.6659, 0.00417346, NaN, NaN, NaN, 0.03112983, "- N/A -   "
2.47, 77.72738, 0.00423177, NaN, NaN, NaN, 0.03601294, "- N/A -   "
2.51, 78.90686, 0.004295635, NaN, NaN, NaN, 0.03601294, "- N/A -   "
2.55, 80.32223, 0.00436783, NaN, NaN, NaN, 0.0335714, "- N/A -   "
2.59, 81.61965, 0.00443725, NaN, NaN, NaN, 0.0323506, "- N/A -   "
2.63, 82.68118, 0.004503892, NaN, NaN, NaN, 0.0323506, "- N/A -   "
2.67, 83.86065, 0.00456498, NaN, NaN, NaN, 0.0347922, "- N/A -   "
2.71, 85.04012, 0.004628845, NaN, NaN, NaN, 0.03601294, "- N/A -   "
2.75, 86.1017, 0.00468993, NaN, NaN, NaN, 0.0384545, "- N/A -   "
2.79, 87.28113, 0.004751022, NaN, NaN, NaN, 0.04089605, "- N/A -   "
2.83, 88.57855, 0.004823218, NaN, NaN, NaN, 0.0396753, "- N/A -   "
2.87, 89.87598, 0.00489541, NaN, NaN, NaN, 0.03601294, "- N/A -   "
2.91, 90.9375, 0.004956502, NaN, NaN, NaN, 0.0396753, "- N/A -   "
2.95, 92.23492, 0.00502037, NaN, NaN, NaN, 0.04089605, "- N/A -   "
2.99, 93.65029, 0.00508979, NaN, NaN, NaN, 0.0384545, "- N/A -   "
3.03, 94.8298, 0.00515921, NaN, NaN, NaN, 0.0372337, "- N/A -   "
3.07, 96.24514, 0.005228624, NaN, NaN, NaN, 0.03601294, "- N/A -   "
3.11, 97.4246, 0.00529804, NaN, NaN, NaN, 0.0347922, "- N/A -   "
3.15, 98.72203, 0.00536468, NaN, NaN, NaN, 0.0347922, "- N/A -   "
3.19, 100.019, 0.0054341, NaN, NaN, NaN, 0.0335714, "- N/A -   "
3.23, 101.199, 0.00550075, NaN, NaN, NaN, 0.0335714, "- N/A -   "
3.27, 102.3784, 0.00556739, NaN, NaN, NaN, 0.0335714, "- N/A -   "
3.31, 103.44, 0.00563125, NaN, NaN, NaN, 0.0347922, "- N/A -   "
3.35, 104.737, 0.00569512, NaN, NaN, NaN, 0.03601294, "- N/A -   "
3.39, 106.035, 0.00576731, NaN, NaN, NaN, 0.0335714, "- N/A -   "
3.43, 107.214, 0.00583673, NaN, NaN, NaN, 0.0323506, "- N/A -   "
3.47, 108.276, 0.00589504, NaN, NaN, NaN, 0.03601294, "- N/A -   "
3.51, 109.3373, 0.005956133, NaN, NaN, NaN, 0.0384545, "- N/A -   "
3.55, 110.517, 0.006019998, NaN, NaN, NaN, 0.0396753, "- N/A -   "
3.59, 111.578, 0.00608109, NaN, NaN, NaN, 0.04211683, "- N/A -   "
3.63, 112.522, 0.006144952, NaN, NaN, NaN, 0.0445584, "- N/A -   "
3.67, 113.819, 0.006214371, NaN, NaN, NaN, 0.0433376, "- N/A -   "
3.71, 114.999, 0.006286566, NaN, NaN, NaN, 0.04089605, "- N/A -   "
3.75, 116.296, 0.006367092, NaN, NaN, NaN, 0.0347922, "- N/A -   "
3.79, 117.476, 0.00643929, NaN, NaN, NaN, 0.0323506, "- N/A -   "
3.83, 118.301, 0.006500376, NaN, NaN, NaN, 0.0347922, "- N/A -   "
3.87, 119.363, 0.006567018, NaN, NaN, NaN, 0.03601294, "- N/A -   "
3.91, 120.424, 0.006636437, NaN, NaN, NaN, 0.0347922, "- N/A -   "
3.95, 121.604, 0.006705856, NaN, NaN, NaN, 0.0323506, "- N/A -   "
3.99, 122.783, 0.006778051, NaN, NaN, NaN, 0.0299091, "- N/A -   "
4.03, 123.7269, 0.006841917, NaN, NaN, NaN, 0.03112983, "- N/A -   "
4.07, 124.788, 0.00690856, NaN, NaN, NaN, 0.0323506, "- N/A -   "
4.11, 125.732, 0.00696687, NaN, NaN, NaN, 0.0347922, "- N/A -   "
4.15, 126.558, 0.00702241, NaN, NaN, NaN, 0.0396753, "- N/A -   "
4.19, 127.501, 0.00708072, NaN, NaN, NaN, 0.0433376, "- N/A -   "
4.23, 128.563, 0.007141806, NaN, NaN, NaN, 0.04577916, "- N/A -   "
4.27, 129.624, 0.00720845, NaN, NaN, NaN, 0.04577916, "- N/A -   "
4.31, 130.804, 0.00728064, NaN, NaN, NaN, 0.0433376, "- N/A -   "
4.35, 131.983, 0.00735562, NaN, NaN, NaN, 0.04089605, "- N/A -   "
4.39, 133.045, 0.00742226, NaN, NaN, NaN, 0.0396753, "- N/A -   "
4.43, 134.342, 0.00749723, NaN, NaN, NaN, 0.03601294, "- N/A -   "
4.47, 135.4037, 0.007566649, NaN, NaN, NaN, 0.0347922, "- N/A -   "
4.51, 136.583, 0.00763884, NaN, NaN, NaN, 0.0323506, "- N/A -   "
4.55, 137.763, 0.00771104, NaN, NaN, NaN, 0.03112983, "- N/A -   "
4.59, 138.824, 0.007777682, NaN, NaN, NaN, 0.0299091, "- N/A -   "
4.63, 139.8857, 0.007844324, NaN, NaN, NaN, 0.0299091, "- N/A -   "
4.67, 141.065, 0.00790819, NaN, NaN, NaN, 0.03112983, "- N/A -   "
4.71, 142.009, 0.007969278, NaN, NaN, NaN, 0.0335714, "- N/A -   "
4.75, 142.952, 0.00802759, NaN, NaN, NaN, 0.0372337, "- N/A -   "
4.79, 143.896, 0.008088678, NaN, NaN, NaN, 0.0396753, "- N/A -   "
4.83, 144.8395, 0.00814699, NaN, NaN, NaN, 0.0433376, "- N/A -   "
4.87, 146.019, 0.008213632, NaN, NaN, NaN, 0.0445584, "- N/A -   "
4.91, 146.963, 0.008277497, NaN, NaN, NaN, 0.0445584, "- N/A -   "
4.95, 148.26, 0.008346916, NaN, NaN, NaN, 0.0433376, "- N/A -   "
4.99, 149.439, 0.008413558, NaN, NaN, NaN, 0.0433376, "- N/A -   "
5, 149.675, 0.008433, NaN, NaN, NaN, 0.0433376, "- N/A -   "
5.01, 150.029, 0.008449656, NaN, NaN, NaN, 0.04211683, "- N/A -   "
5.05, 151.327, 0.008530182, NaN, NaN, NaN, 0.0372337, "- N/A -   "
5.09, 152.742, 0.008605154, NaN, NaN, NaN, 0.0323506, "- N/A -   "
5.13, 154.0394, 0.008682903, NaN, NaN, NaN, 0.0286883, "- N/A -   "
5.17, 155.219, 0.008749546, NaN, NaN, NaN, 0.0274675, "- N/A -   "
5.21, 156.162, 0.008813411, NaN, NaN, NaN, 0.0286883, "- N/A -   "
5.25, 157.106, 0.008874499, NaN, NaN, NaN, 0.0323506, "- N/A -   "
5.29, 158.168, 0.00893559, NaN, NaN, NaN, 0.0335714, "- N/A -   "
5.33, 159.347, 0.008999453, NaN, NaN, NaN, 0.03601294, "- N/A -   "
5.37, 160.409, 0.009063318, NaN, NaN, NaN, 0.03601294, "- N/A -   "
5.41, 161.588, 0.00912996, NaN, NaN, NaN, 0.03601294, "- N/A -   "
5.45, 162.768, 0.009196603, NaN, NaN, NaN, 0.0372337, "- N/A -   "
5.49, 163.829, 0.009260467, NaN, NaN, NaN, 0.0372337, "- N/A -   "
5.53, 164.891, 0.009318779, NaN, NaN, NaN, 0.04089605, "- N/A -   "
5.57, 165.834, 0.009379867, NaN, NaN, NaN, 0.0433376, "- N/A -   "
5.61, 167.014, 0.00944651, NaN, NaN, NaN, 0.0433376, "- N/A -   "
5.65, 168.311, 0.009515929, NaN, NaN, NaN, 0.0433376, "- N/A -   "
5.69, 169.726, 0.009590901, NaN, NaN, NaN, 0.0384545, "- N/A -   "
5.73, 171.024, 0.00966865, NaN, NaN, NaN, 0.0347922, "- N/A -   "
5.77, 172.4392, 0.009738068, NaN, NaN, NaN, 0.0323506, "- N/A -   "
5.81, 173.619, 0.009807487, NaN, NaN, NaN, 0.03112983, "- N/A -   "
5.85, 174.6802, 0.009874129, NaN, NaN, NaN, 0.03112983, "- N/A -   "
5.89, 175.742, 0.009935218, NaN, NaN, NaN, 0.0347922, "- N/A -   "
5.93, 176.803, 0.009996306, NaN, NaN, NaN, 0.03601294, "- N/A -   "
5.97, 177.983, 0.0100602, NaN, NaN, NaN, 0.0372337, "- N/A -   "
6.01, 179.28, 0.0101351, NaN, NaN, NaN, 0.0335714, "- N/A -   "
6.05, 180.578, 0.0102018, NaN, NaN, NaN, 0.0335714, "- N/A -   "
6.09, 181.757, 0.0102712, NaN, NaN, NaN, 0.0335714, "- N/A -   "
6.13, 182.701, 0.0103267, NaN, NaN, NaN, 0.0372337, "- N/A -   "
6.17, 183.762, 0.0103878, NaN, NaN, NaN, 0.0396753, "- N/A -   "
6.21, 184.942, 0.0104489, NaN, NaN, NaN, 0.04211683, "- N/A -   "
6.25, 186.121, 0.0105183, NaN, NaN, NaN, 0.04089605, "- N/A -   "
6.29, 187.419, 0.0105878, NaN, NaN, NaN, 0.0396753, "- N/A -   "
6.33, 188.598, 0.0106544, NaN, NaN, NaN, 0.04089605, "- N/A -   "
6.37, 190.013, 0.0107266, NaN, NaN, NaN, 0.0384545, "- N/A -   "
6.41, 191.311, 0.0107988, NaN, NaN, NaN, 0.03601294, "- N/A -   "
6.45, 192.608, 0.0108682, NaN, NaN, NaN, 0.0335714, "- N/A -   "
6.49, 193.7877, 0.0109348, NaN, NaN, NaN, 0.0335714, "- N/A -   "
6.53, 194.849, 0.0109987, NaN, NaN, NaN, 0.0347922, "- N/A -   "
6.57, 196.147, 0.0110681, NaN, NaN, NaN, 0.0335714, "- N/A -   "
6.61, 197.208, 0.0111348, NaN, NaN, NaN, 0.0335714, "- N/A -   "
6.65, 198.506, 0.0111959, NaN, NaN, NaN, 0.03601294, "- N/A -   "
6.69, 199.685, 0.0112653, NaN, NaN, NaN, 0.0347922, "- N/A -   "
6.73, 200.9825, 0.0113347, NaN, NaN, NaN, 0.0335714, "- N/A -   "
6.77, 202.28, 0.0114069, NaN, NaN, NaN, 0.0323506, "- N/A -   "
6.81, 203.341, 0.0114708, NaN, NaN, NaN, 0.0323506, "- N/A -   "
6.85, 204.403, 0.0115318, NaN, NaN, NaN, 0.0347922, "- N/A -   "
6.89, 205.582, 0.0115902, NaN, NaN, NaN, 0.0384545, "- N/A -   "
6.93, 206.644, 0.011654, NaN, NaN, NaN, 0.0396753, "- N/A -   "
6.97, 207.823, 0.0117179, NaN, NaN, NaN, 0.04089605, "- N/A -   "
7.01, 209.003, 0.0117818, NaN, NaN, NaN, 0.04211683, "- N/A -   "
7.05, 210.3, 0.0118484, NaN, NaN, NaN, 0.04211683, "- N/A -   "
7.09, 211.598, 0.0119178, NaN, NaN, NaN, 0.04089605, "- N/A -   "
7.13, 212.895, 0.01199, NaN, NaN, NaN, 0.0384545, "- N/A -   "
7.17, 214.546, 0.012065, NaN, NaN, NaN, 0.0347922, "- N/A -   "
7.21, 215.726, 0.0121372, NaN, NaN, NaN, 0.0323506, "- N/A -   "
7.25, 217.023, 0.012201, NaN, NaN, NaN, 0.0335714, "- N/A -   "
7.29, 218.203, 0.0122649, NaN, NaN, NaN, 0.0347922, "- N/A -   "
7.33, 219.3823, 0.0123316, NaN, NaN, NaN, 0.0347922, "- N/A -   "
7.37, 220.798, 0.0124093, NaN, NaN, NaN, 0.0299091, "- N/A -   "
7.41, 222.213, 0.0124787, NaN, NaN, NaN, 0.0286883, "- N/A -   "
7.45, 223.3925, 0.0125454, NaN, NaN, NaN, 0.0299091, "- N/A -   "
7.49, 224.572, 0.0126065, NaN, NaN, NaN, 0.03112983, "- N/A -   "
7.53, 225.516, 0.0126592, NaN, NaN, NaN, 0.0372337, "- N/A -   "
7.57, 226.459, 0.0127147, NaN, NaN, NaN, 0.04211683, "- N/A -   "
7.61, 227.521, 0.0127758, NaN, NaN, NaN, 0.0445584, "- N/A -   "
7.65, 228.818, 0.0128397, NaN, NaN, NaN, 0.04699994, "- N/A -   "
7.69, 230.116, 0.0129036, NaN, NaN, NaN, 0.04699994, "- N/A -   "
7.73, 231.649, 0.0129813, NaN, NaN, NaN, 0.04211683, "- N/A -   "
7.77, 233.182, 0.0130591, NaN, NaN, NaN, 0.0372337, "- N/A -   "
7.81, 234.598, 0.013134, NaN, NaN, NaN, 0.0335714, "- N/A -   "
7.85, 235.895, 0.0132035, NaN, NaN, NaN, 0.0323506, "- N/A -   "
7.89, 237.074, 0.0132673, NaN, NaN, NaN, 0.0335714, "- N/A -   "
7.93, 238.49, 0.0133423, NaN, NaN, NaN, 0.03112983, "- N/A -   "
7.97, 239.905, 0.0134145, NaN, NaN, NaN, 0.0286883, "- N/A -   "
8.01, 241.085, 0.0134784, NaN, NaN, NaN, 0.0286883, "- N/A -   "
8.05, 242.2641, 0.0135422, NaN, NaN, NaN, 0.0299091, "- N/A -   "
8.09, 243.678, 0.0136116, NaN, NaN, NaN, 0.0299091, "- N/A -   "
8.13, 244.857, 0.0136755, NaN, NaN, NaN, 0.03112983, "- N/A -   "
8.17, 245.799, 0.013731, NaN, NaN, NaN, 0.03601294, "- N/A -   "
8.21, 246.86, 0.0137893, NaN, NaN, NaN, 0.04089605, "- N/A -   "
8.25, 248.038, 0.0138477, NaN, NaN, NaN, 0.0433376, "- N/A -   "
8.29, 249.334, 0.0139115, NaN, NaN, NaN, 0.04577916, "- N/A -   "
8.33, 250.63, 0.0139782, NaN, NaN, NaN, 0.0445584, "- N/A -   "
8.37, 251.926, 0.0140448, NaN, NaN, NaN, 0.04577916, "- N/A -   "
8.41, 253.222, 0.0141142, NaN, NaN, NaN, 0.0433376, "- N/A -   "
8.45, 254.7539, 0.0141864, NaN, NaN, NaN, 0.04089605, "- N/A -   "
8.49, 256.168, 0.0142642, NaN, NaN, NaN, 0.03601294, "- N/A -   "
8.53, 257.817, 0.0143419, NaN, NaN, NaN, 0.03112983, "- N/A -   "
8.57, 259.113, 0.0144141, NaN, NaN, NaN, 0.0299091, "- N/A -   "
8.61, 260.292, 0.014478, NaN, NaN, NaN, 0.03112983, "- N/A -   "
8.65, 261.588, 0.0145418, NaN, NaN, NaN, 0.03112983, "- N/A -   "
8.69, 262.766, 0.0146029, NaN, NaN, NaN, 0.0335714, "- N/A -   "
8.73, 264.0622, 0.014664, NaN, NaN, NaN, 0.03601294, "- N/A -   "
8.77, 265.24, 0.0147279, NaN, NaN, NaN, 0.0372337, "- N/A -   "
8.81, 266.537, 0.01479731, NaN, NaN, NaN, 0.03601294, "- N/A -   "
8.85, 267.715, 0.0148612, NaN, NaN, NaN, 0.0372337, "- N/A -   "
8.89, 269.011, 0.0149278, NaN, NaN, NaN, 0.0384545, "- N/A -   "
8.93, 270.071, 0.0149806, NaN, NaN, NaN, 0.0433376, "- N/A -   "
8.97, 271.367, 0.0150444, NaN, NaN, NaN, 0.04577916, "- N/A -   "
9.01, 272.546, 0.01510553, NaN, NaN, NaN, 0.04699994, "- N/A -   "
9.05, 273.842, 0.0151749, NaN, NaN, NaN, 0.04577916, "- N/A -   "
[...]
14.05, 448.9313, 0.0235413, NaN, NaN, NaN, 0.0323506, "- N/A -   "
14.24, 456.0009, 0.0238579, NaN, NaN, NaN, 0.03112983, "- N/A -   "
14.43, 462.3635, 0.0241466, NaN, NaN, NaN, 0.0445584, "- N/A -   "
14.62, 469.904, 0.0244798, NaN, NaN, NaN, 0.03601294, "- N/A -   "
14.81, 477.563, 0.0248131, NaN, NaN, NaN, 0.0286883, "- N/A -   "
15, 484.279, 0.0251102, NaN, NaN, NaN, 0.0372337, "- N/A -   "
15.19, 491.113, 0.0254128, NaN, NaN, NaN, 0.0445584, "- N/A -   "
15.38, 499.243, 0.0257627, NaN, NaN, NaN, 0.0286883, "- N/A -   "
15.57, 506.077, 0.0260598, NaN, NaN, NaN, 0.0372337, "- N/A -   "
15.76, 513.264, 0.0263708, NaN, NaN, NaN, 0.0396753, "- N/A -   "
15.95, 521.07, 0.026704, NaN, NaN, NaN, 0.0323506, "- N/A -   "
16.14, 528.64, 0.0270233, NaN, NaN, NaN, 0.03112983, "- N/A -   "
16.33, 535.382, 0.02732046, NaN, NaN, NaN, 0.0396753, "- N/A -   "
16.52, 542.8336, 0.027637, NaN, NaN, NaN, 0.0396753, "- N/A -   "
16.71, 550.8768, 0.027973, NaN, NaN, NaN, 0.03112983, "- N/A -   "
16.9, 558.092, 0.0282812, NaN, NaN, NaN, 0.0347922, "- N/A -   "
17.09, 565.5436, 0.028595, NaN, NaN, NaN, 0.03601294, "- N/A -   "
17.28, 572.7587, 0.0288977, NaN, NaN, NaN, 0.0433376, "- N/A -   "
17.47, 580.8018, 0.0292364, NaN, NaN, NaN, 0.0335714, "- N/A -   "
17.66, 588.49, 0.0295669, NaN, NaN, NaN, 0.0274675, "- N/A -   "
17.85, 595.1138, 0.0298418, NaN, NaN, NaN, 0.04577916, "- N/A -   "
18.04, 603.275, 0.0301777, NaN, NaN, NaN, 0.0372337, "- N/A -   "
18.23, 611.318, 0.0305137, NaN, NaN, NaN, 0.0286883, "- N/A -   "
18.42, 618.1785, 0.0308081, NaN, NaN, NaN, 0.0396753, "- N/A -   "
18.61, 625.3937, 0.031108, NaN, NaN, NaN, 0.04577916, "- N/A -   "
18.8, 633.9099, 0.0314606, NaN, NaN, NaN, 0.0299091, "- N/A -   "
18.99, 641.48, 0.0317716, NaN, NaN, NaN, 0.0323506, "- N/A -   "
19.18, 648.3402, 0.0320604, NaN, NaN, NaN, 0.0445584, "- N/A -   "
19.37, 656.6198, 0.0323964, NaN, NaN, NaN, 0.03601294, "- N/A -   "
19.56, 664.5446, 0.03271847, NaN, NaN, NaN, 0.0347922, "- N/A -   "
19.75, 672.1146, 0.033035, NaN, NaN, NaN, 0.0347922, "- N/A -   "
19.94, 679.448, 0.0333405, NaN, NaN, NaN, 0.0384545, "- N/A -   "
20.13, 687.491, 0.0336653, NaN, NaN, NaN, 0.0347922, "- N/A -   "
20.32, 695.416, 0.033993, NaN, NaN, NaN, 0.03112983, "- N/A -   "
20.51, 702.8677, 0.0343012, NaN, NaN, NaN, 0.0335714, "- N/A -   "
20.7, 710.201, 0.0345956, NaN, NaN, NaN, 0.0433376, "- N/A -   "
20.89, 718.4807, 0.0349343, NaN, NaN, NaN, 0.0347922, "- N/A -   "
21.08, 726.6421, 0.03526475, NaN, NaN, NaN, 0.0286883, "- N/A -   "
21.27, 733.3841, 0.0355424, NaN, NaN, NaN, 0.0445584, "- N/A -   "
21.46, 741.9003, 0.0358812, NaN, NaN, NaN, 0.0347922, "- N/A -   "
21.65, 749.9434, 0.03621162, NaN, NaN, NaN, 0.0299091, "- N/A -   "
21.84, 757.395, 0.03651151, NaN, NaN, NaN, 0.0372337, "- N/A -   "
22.03, 764.492, 0.0368086, NaN, NaN, NaN, 0.04577916, "- N/A -   "
22.22, 773.4813, 0.037164, NaN, NaN, NaN, 0.0299091, "- N/A -   "
22.41, 780.8147, 0.0374612, NaN, NaN, NaN, 0.0372337, "- N/A -   "
22.6, 788.266, 0.0377638, NaN, NaN, NaN, 0.0433376, "- N/A -   "
22.79, 796.664, 0.0381054, NaN, NaN, NaN, 0.0323506, "- N/A -   "
22.98, 804.234, 0.0384136, NaN, NaN, NaN, 0.03601294, "- N/A -   "
23.17, 812.277, 0.0387385, NaN, NaN, NaN, 0.0323506, "- N/A -   "
23.36, 819.4925, 0.0390328, NaN, NaN, NaN, 0.04211683, "- N/A -   "
23.55, 827.7722, 0.0393577, NaN, NaN, NaN, 0.0384545, "- N/A -   "
23.74, 835.9336, 0.03968534, NaN, NaN, NaN, 0.0335714, "- N/A -   "
23.93, 843.5036, 0.03999633, NaN, NaN, NaN, 0.0372337, "- N/A -   "
24.12, 851.1918, 0.0403046, NaN, NaN, NaN, 0.0396753, "- N/A -   "
24.31, 859.5898, 0.04064054, NaN, NaN, NaN, 0.0323506, "- N/A -   "
24.5, 867.751, 0.04096542, NaN, NaN, NaN, 0.0286883, "- N/A -   "
24.69, 874.4931, 0.0412431, NaN, NaN, NaN, 0.0445584, "- N/A -   "
24.88, 883.1276, 0.0415846, NaN, NaN, NaN, 0.0335714, "- N/A -   "
25.07, 891.1707, 0.0419095, NaN, NaN, NaN, 0.0299091, "- N/A -   "
25.26, 898.268, 0.04220385, NaN, NaN, NaN, 0.04089605, "- N/A -   "
25.45, 906.074, 0.04251485, NaN, NaN, NaN, 0.0433376, "- N/A -   "
25.64, 915.0635, 0.0428647, NaN, NaN, NaN, 0.0274675, "- N/A -   "
25.83, 922.3969, 0.0431646, NaN, NaN, NaN, 0.0347922, "- N/A -   "
26.02, 929.8486, 0.0434617, NaN, NaN, NaN, 0.0445584, "- N/A -   "
26.21, 938.4831, 0.04380048, NaN, NaN, NaN, 0.0335714, "- N/A -   "
26.4, 946.1713, 0.04411148, NaN, NaN, NaN, 0.0372337, "- N/A -   "
26.59, 954.3327, 0.0444308, NaN, NaN, NaN, 0.03601294, "- N/A -   "
26.78, 962.021, 0.04473625, NaN, NaN, NaN, 0.04089605, "- N/A -   "
26.97, 970.1823, 0.0450639, NaN, NaN, NaN, 0.03601294, "- N/A -   "
27.16, 978.3437, 0.0453888, NaN, NaN, NaN, 0.0323506, "- N/A -   "
27.35, 986.032, 0.0456915, NaN, NaN, NaN, 0.0384545, "- N/A -   "
27.54, 993.6019, 0.04599134, NaN, NaN, NaN, 0.04577916, "- N/A -   "
27.73, 1002.35, 0.04633288, NaN, NaN, NaN, 0.0347922, "- N/A -   "
27.92, 1010.75, 0.0466633, NaN, NaN, NaN, 0.0286883, "- N/A -   "
28.11, 1017.53, 0.0469382, NaN, NaN, NaN, 0.04699994, "- N/A -   "
28.3, 1026.714, 0.0472853, NaN, NaN, NaN, 0.0335714, "- N/A -   "
28.49, 1035.06, 0.04761574, NaN, NaN, NaN, 0.0286883, "- N/A -   "
28.68, 1042.22, 0.04789897, NaN, NaN, NaN, 0.04211683, "- N/A -   "
28.87, 1050.33, 0.04821274, NaN, NaN, NaN, 0.0433376, "- N/A -   "
29.06, 1059.27, 0.0485626, NaN, NaN, NaN, 0.0299091, "- N/A -   "
29.25, 1067.14, 0.0488653, NaN, NaN, NaN, 0.0347922, "- N/A -   "
29.44, 1074.77, 0.04916239, NaN, NaN, NaN, 0.0433376, "- N/A -   "
29.63, 1083.84, 0.0495095, NaN, NaN, NaN, 0.0299091, "- N/A -   "
29.82, 1091.47, 0.04981215, NaN, NaN, NaN, 0.0372337, "- N/A -   "
30.01, 1099.82, 0.0501343, NaN, NaN, NaN, 0.0335714, "- N/A -   "
30.2, 1107.57, 0.0504397, NaN, NaN, NaN, 0.0384545, "- N/A -   "
30.39, 1115.8, 0.0507562, NaN, NaN, NaN, 0.0384545, "- N/A -   "
30.58, 1124.38, 0.05108668, NaN, NaN, NaN, 0.0323506, "- N/A -   "
30.77, 1132.25, 0.0513949, NaN, NaN, NaN, 0.0372337, "- N/A -   "
30.96, 1140.12, 0.0516976, NaN, NaN, NaN, 0.0433376, "- N/A -   "
31.15, 1149.07, 0.0520419, NaN, NaN, NaN, 0.0323506, "- N/A -   "
31.34, 1157.18, 0.0523584, NaN, NaN, NaN, 0.0323506, "- N/A -   "
31.53, 1164.21, 0.0526389, NaN, NaN, NaN, 0.04699994, "- N/A -   "
31.72, 1172.92, 0.0529749, NaN, NaN, NaN, 0.0384545, "- N/A -   "
31.91, 1181.62, 0.0533136, NaN, NaN, NaN, 0.0299091, "- N/A -   "
32.1, 1189.016, 0.0536052, NaN, NaN, NaN, 0.0396753, "- N/A -   "
32.29, 1196.89, 0.05391341, NaN, NaN, NaN, 0.0433376, "- N/A -   "
32.48, 1206.19, 0.05426606, NaN, NaN, NaN, 0.0274675, "- N/A -   "
32.67, 1213.701, 0.0545632, NaN, NaN, NaN, 0.03601294, "- N/A -   "
32.86, 1221.45, 0.05486306, NaN, NaN, NaN, 0.0445584, "- N/A -   "
33.05, 1230.4, 0.05520183, NaN, NaN, NaN, 0.0335714, "- N/A -   "
33.24, 1238.267, 0.05551282, NaN, NaN, NaN, 0.0372337, "- N/A -   "
33.43, 1246.61, 0.0558321, NaN, NaN, NaN, 0.03601294, "- N/A -   "
33.62, 1254.49, 0.0561404, NaN, NaN, NaN, 0.0396753, "- N/A -   "
33.81, 1263.07, 0.05646525, NaN, NaN, NaN, 0.0347922, "- N/A -   "
34, 1271.3, 0.0567846, NaN, NaN, NaN, 0.0347922, "- N/A -   "
34.19, 1279.17, 0.0570928, NaN, NaN, NaN, 0.0372337, "- N/A -   "
34.38, 1287.041, 0.0573982, NaN, NaN, NaN, 0.04211683, "- N/A -   "
34.57, 1295.75, 0.05773422, NaN, NaN, NaN, 0.0347922, "- N/A -   "
34.76, 1304.45, 0.0580619, NaN, NaN, NaN, 0.0286883, "- N/A -   "
34.95, 1311.37, 0.0583423, NaN, NaN, NaN, 0.04577916, "- N/A -   "
35.14, 1320.67, 0.05868665, NaN, NaN, NaN, 0.0323506, "- N/A -   "
35.33, 1329.02, 0.0590115, NaN, NaN, NaN, 0.03112983, "- N/A -   "
35.52, 1336.29, 0.05929753, NaN, NaN, NaN, 0.0433376, "- N/A -   "
35.71, 1344.64, 0.05961409, NaN, NaN, NaN, 0.0445584, "- N/A -   "
35.9, 1353.82, 0.059964, NaN, NaN, NaN, 0.0286883, "- N/A -   "
36.09, 1361.45, 0.06025829, NaN, NaN, NaN, 0.0384545, "- N/A -   "
36.28, 1369.32, 0.060561, NaN, NaN, NaN, 0.0445584, "- N/A -   "
36.47, 1378.51, 0.0609081, NaN, NaN, NaN, 0.03112983, "- N/A -   "
36.66, 1386.38, 0.0612135, NaN, NaN, NaN, 0.03601294, "- N/A -   "
36.85, 1394.487, 0.06152449, NaN, NaN, NaN, 0.0384545, "- N/A -   "
37.04, 1402.48, 0.06183549, NaN, NaN, NaN, 0.04089605, "- N/A -   "
37.23, 1411.06, 0.06216592, NaN, NaN, NaN, 0.0347922, "- N/A -   "
37.42, 1419.41, 0.0624852, NaN, NaN, NaN, 0.0335714, "- N/A -   "
37.61, 1427.162, 0.06279069, NaN, NaN, NaN, 0.0396753, "- N/A -   "
37.8, 1435.27, 0.06310446, NaN, NaN, NaN, 0.0396753, "- N/A -   "
37.99, 1443.86, 0.0634349, NaN, NaN, NaN, 0.0335714, "- N/A -   "
38.18, 1451.97, 0.063757, NaN, NaN, NaN, 0.0323506, "- N/A -   "
38.37, 1459, 0.06403468, NaN, NaN, NaN, 0.0482207, "- N/A -   "
38.39, 1459.84, 0.064068, NaN, NaN, NaN, 0.0494415, "- N/A -   "