File: 2_Tensile_Data/Hamel_ForceTest_Bolt10_Test9.csv
Time, Load (lb), Position (in), AxialStrain (in), TransverseStrain (in), Auxiliary (), Control Out (V), Stress (psi)
0.0, 10.1435, 0.0, NaN, NaN, NaN, -0.006714277, "- N/A -   "
0.01, 10.26143, 2.776752E-6, NaN, NaN, NaN, -6.103888E-4, "- N/A -   "
0.02, 10.1435, 2.776752E-6, NaN, NaN, NaN, 0.007935055, "- N/A -   "
0.03, 10.1435, 2.776752E-6, NaN, NaN, NaN, 0.0274675, "- N/A -   "
0.04, 10.26143, 1.1107e-05, NaN, NaN, NaN, 0.0445584, "- N/A -   "
0.05, 10.3794, 2.2214e-05, NaN, NaN, NaN, 0.0579869, "- N/A -   "
0.06, 10.8512, 4.16513e-05, NaN, NaN, NaN, 0.0689739, "- N/A -   "
0.07, 11.0871, 6.386529E-5, NaN, NaN, NaN, 0.07874016, "- N/A -   "
0.08, 11.6768, 8.885606E-5, NaN, NaN, NaN, 0.0872856, "- N/A -   "
0.09, 12.14859, 0.000116624, NaN, NaN, NaN, 0.095831, "- N/A -   "
0.1, 12.6204, 0.000147168, NaN, NaN, NaN, 0.09461027, "- N/A -   "
0.11, 12.9742, 0.000174935, NaN, NaN, NaN, 0.08850638, "- N/A -   "
0.12, 13.564, 0.000202703, NaN, NaN, NaN, 0.08362327, "- N/A -   "
0.13, 14.0357, 2.304704E-4, NaN, NaN, NaN, 0.07874016, "- N/A -   "
0.14, 14.3896, 0.000255461, NaN, NaN, NaN, 0.0750778, "- N/A -   "
0.15, 14.7434, 0.000280452, NaN, NaN, NaN, 0.07263627, "- N/A -   "
0.16, 15.2152, 2.998892E-4, NaN, NaN, NaN, 0.0701947, "- N/A -   "
0.17, 15.3332, 0.000319326, NaN, NaN, NaN, 0.0689739, "- N/A -   "
0.18, 15.687, 0.00034154, NaN, NaN, NaN, 0.06775316, "- N/A -   "
0.19, 16.0409, 0.000360978, NaN, NaN, NaN, 0.0653116, "- N/A -   "
0.2, 16.27675, 3.80415E-4, NaN, NaN, NaN, 0.0640908, "- N/A -   "
0.21, 16.6306, 0.000397076, NaN, NaN, NaN, 0.0640908, "- N/A -   "
0.22, 16.86649, 0.000416513, NaN, NaN, NaN, 0.0640908, "- N/A -   "
0.23, 17.1024, 4.331733E-4, NaN, NaN, NaN, 0.06287005, "- N/A -   "
0.24, 17.3383, 0.000452611, NaN, NaN, NaN, 0.06164927, "- N/A -   "
0.25, 17.8101, 0.000474825, NaN, NaN, NaN, 0.0604285, "- N/A -   "
0.26, 18.046, 0.000491485, NaN, NaN, NaN, 0.0592077, "- N/A -   "
0.27, 18.16391, 0.000510922, NaN, NaN, NaN, 0.0579869, "- N/A -   "
0.28, 18.5178, 0.00053036, NaN, NaN, NaN, 0.05676616, "- N/A -   "
0.29, 18.8716, 5.470201E-4, NaN, NaN, NaN, 0.05676616, "- N/A -   "
0.3, 19.1075, 0.000569234, NaN, NaN, NaN, 0.0543246, "- N/A -   "
0.31, 19.3434, 0.000591448, NaN, NaN, NaN, 0.05188305, "- N/A -   "
0.32, 19.6972, 6.108854E-4, NaN, NaN, NaN, 0.05066227, "- N/A -   "
0.33, 19.9331, 0.000630323, NaN, NaN, NaN, 0.0494415, "- N/A -   "
0.34, 20.169, 6.525367E-4, NaN, NaN, NaN, 0.04699994, "- N/A -   "
0.35, 20.52286, 6.719739E-4, NaN, NaN, NaN, 0.04577916, "- N/A -   "
0.36, 20.8767, 6.914112E-4, NaN, NaN, NaN, 0.0445584, "- N/A -   "
0.37, 21.1126, 7.108485E-4, NaN, NaN, NaN, 0.0433376, "- N/A -   "
0.38, 21.46644, 7.302857E-4, NaN, NaN, NaN, 0.04211683, "- N/A -   "
0.39, 21.7023, 7.49723E-4, NaN, NaN, NaN, 0.04211683, "- N/A -   "
0.4, 21.93823, 7.663835E-4, NaN, NaN, NaN, 0.04089605, "- N/A -   "
0.41, 22.1741, 0.000785821, NaN, NaN, NaN, 0.04089605, "- N/A -   "
0.42, 22.41, 0.000802481, NaN, NaN, NaN, 0.0396753, "- N/A -   "
0.43, 22.6459, 8.191418E-4, NaN, NaN, NaN, 0.0396753, "- N/A -   "
0.44, 22.9998, 8.358023E-4, NaN, NaN, NaN, 0.0396753, "- N/A -   "
0.45, 23.2357, 8.524628E-4, NaN, NaN, NaN, 0.0396753, "- N/A -   "
0.46, 23.3536, 0.0008719, NaN, NaN, NaN, 0.0384545, "- N/A -   "
0.47, 23.7074, 0.000891337, NaN, NaN, NaN, 0.0384545, "- N/A -   "
0.48, 23.9433, 0.000907998, NaN, NaN, NaN, 0.0372337, "- N/A -   "
0.49, 24.1792, 9.246584E-4, NaN, NaN, NaN, 0.0372337, "- N/A -   "
0.5, 24.5331, 9.440956E-4, NaN, NaN, NaN, 0.0372337, "- N/A -   "
0.51, 24.8869, 0.000960756, NaN, NaN, NaN, 0.03601294, "- N/A -   "
0.56, 26.0664, 0.00104961, NaN, NaN, NaN, 0.0335714, "- N/A -   "
0.61, 27.3638, 0.00113569, NaN, NaN, NaN, 0.0323506, "- N/A -   "
0.66, 28.6612, 0.001218994, NaN, NaN, NaN, 0.0323506, "- N/A -   "
0.71, 29.84071, 0.001296743, NaN, NaN, NaN, 0.0347922, "- N/A -   "
0.76, 31.0202, 0.00137172, NaN, NaN, NaN, 0.0396753, "- N/A -   "
0.81, 32.1997, 0.00144669, NaN, NaN, NaN, 0.0433376, "- N/A -   "
0.86, 33.49708, 0.00152166, NaN, NaN, NaN, 0.04577916, "- N/A -   "
0.91, 34.9125, 0.00160774, NaN, NaN, NaN, 0.0445584, "- N/A -   "
0.96, 36.2099, 0.00169104, NaN, NaN, NaN, 0.0445584, "- N/A -   "
1.01, 37.8611, 0.00178545, NaN, NaN, NaN, 0.0396753, "- N/A -   "
1.06, 39.15856, 0.00187708, NaN, NaN, NaN, 0.03601294, "- N/A -   "
1.11, 40.9278, 0.001982601, NaN, NaN, NaN, 0.0274675, "- N/A -   "
1.16, 42.3431, 0.00206313, NaN, NaN, NaN, 0.0274675, "- N/A -   "
1.21, 43.87646, 0.002138099, NaN, NaN, NaN, 0.03112983, "- N/A -   "
1.26, 45.29183, 0.00221862, NaN, NaN, NaN, 0.0323506, "- N/A -   "
1.31, 46.9431, 0.002304704, NaN, NaN, NaN, 0.0323506, "- N/A -   "
1.36, 48.3585, 0.002382453, NaN, NaN, NaN, 0.0335714, "- N/A -   "
1.41, 49.8918, 0.0024602, NaN, NaN, NaN, 0.0372337, "- N/A -   "
1.46, 51.543, 0.00254073, NaN, NaN, NaN, 0.0372337, "- N/A -   "
1.51, 53.19431, 0.0026157, NaN, NaN, NaN, 0.04089605, "- N/A -   "
1.56, 54.7276, 0.00269345, NaN, NaN, NaN, 0.0433376, "- N/A -   "
1.61, 56.143, 0.0027712, NaN, NaN, NaN, 0.04577916, "- N/A -   "
1.66, 58.1481, 0.00286283, NaN, NaN, NaN, 0.0433376, "- N/A -   "
1.71, 60.15321, 0.002954464, NaN, NaN, NaN, 0.0384545, "- N/A -   "
1.76, 62.0404, 0.0030461, NaN, NaN, NaN, 0.0347922, "- N/A -   "
1.81, 63.6916, 0.00313773, NaN, NaN, NaN, 0.0323506, "- N/A -   "
1.86, 65.3429, 0.003215479, NaN, NaN, NaN, 0.0335714, "- N/A -   "
1.91, 67.1121, 0.00329323, NaN, NaN, NaN, 0.03601294, "- N/A -   "
1.96, 68.7634, 0.003382084, NaN, NaN, NaN, 0.0347922, "- N/A -   "
2.01, 70.6505, 0.00346539, NaN, NaN, NaN, 0.0335714, "- N/A -   "
2.06, 72.1838, 0.00354591, NaN, NaN, NaN, 0.03601294, "- N/A -   "
2.11, 74.071, 0.003626438, NaN, NaN, NaN, 0.03601294, "- N/A -   "
2.16, 75.6043, 0.00370141, NaN, NaN, NaN, 0.0396753, "- N/A -   "
2.21, 77.13765, 0.00377638, NaN, NaN, NaN, 0.0445584, "- N/A -   "
2.26, 79.0248, 0.00386246, NaN, NaN, NaN, 0.04211683, "- N/A -   "
2.31, 80.912, 0.00394854, NaN, NaN, NaN, 0.04089605, "- N/A -   "
2.36, 82.79912, 0.00404017, NaN, NaN, NaN, 0.0372337, "- N/A -   "
2.41, 84.68629, 0.00412903, NaN, NaN, NaN, 0.03601294, "- N/A -   "
2.46, 86.4555, 0.00421233, NaN, NaN, NaN, 0.0347922, "- N/A -   "
2.51, 88.34265, 0.00430119, NaN, NaN, NaN, 0.0323506, "- N/A -   "
2.56, 90.11186, 0.004384491, NaN, NaN, NaN, 0.0335714, "- N/A -   "
2.61, 91.88108, 0.004465017, NaN, NaN, NaN, 0.0335714, "- N/A -   "
2.66, 93.53234, 0.00454832, NaN, NaN, NaN, 0.0335714, "- N/A -   "
2.71, 95.5374, 0.00463718, NaN, NaN, NaN, 0.03112983, "- N/A -   "
2.76, 97.18872, 0.004714925, NaN, NaN, NaN, 0.0335714, "- N/A -   "
2.81, 98.9579, 0.00479545, NaN, NaN, NaN, 0.0347922, "- N/A -   "
2.86, 100.6092, 0.0048732, NaN, NaN, NaN, 0.0372337, "- N/A -   "
2.91, 102.26, 0.004950949, NaN, NaN, NaN, 0.0396753, "- N/A -   "
2.96, 104.03, 0.00503147, NaN, NaN, NaN, 0.04089605, "- N/A -   "
3.01, 105.681, 0.00510922, NaN, NaN, NaN, 0.0433376, "- N/A -   "
3.06, 107.45, 0.005195303, NaN, NaN, NaN, 0.0433376, "- N/A -   "
3.11, 109.455, 0.005284159, NaN, NaN, NaN, 0.0396753, "- N/A -   "
3.16, 111.578, 0.00537857, NaN, NaN, NaN, 0.0347922, "- N/A -   "
3.21, 113.465, 0.00546465, NaN, NaN, NaN, 0.0347922, "- N/A -   "
3.26, 115.117, 0.00554517, NaN, NaN, NaN, 0.03601294, "- N/A -   "
3.31, 116.886, 0.00562848, NaN, NaN, NaN, 0.0347922, "- N/A -   "
3.36, 118.891, 0.00571456, NaN, NaN, NaN, 0.0335714, "- N/A -   "
3.41, 120.896, 0.00580619, NaN, NaN, NaN, 0.03112983, "- N/A -   "
3.46, 122.783, 0.00588949, NaN, NaN, NaN, 0.03112983, "- N/A -   "
3.51, 124.435, 0.00596169, NaN, NaN, NaN, 0.0347922, "- N/A -   "
3.56, 125.85, 0.006033882, NaN, NaN, NaN, 0.04089605, "- N/A -   "
3.61, 127.501, 0.00610608, NaN, NaN, NaN, 0.04577916, "- N/A -   "
3.66, 129.27, 0.00618105, NaN, NaN, NaN, 0.0494415, "- N/A -   "
3.71, 131.276, 0.006272683, NaN, NaN, NaN, 0.04577916, "- N/A -   "
3.76, 133.517, 0.00636987, NaN, NaN, NaN, 0.0396753, "- N/A -   "
3.81, 135.875, 0.006467055, NaN, NaN, NaN, 0.0335714, "- N/A -   "
3.86, 137.6447, 0.00655313, NaN, NaN, NaN, 0.0335714, "- N/A -   "
3.91, 139.768, 0.006639214, NaN, NaN, NaN, 0.03112983, "- N/A -   "
3.96, 141.6549, 0.00672807, NaN, NaN, NaN, 0.0299091, "- N/A -   "
4.01, 143.66, 0.006808596, NaN, NaN, NaN, 0.0299091, "- N/A -   "
4.06, 145.429, 0.006894675, NaN, NaN, NaN, 0.0299091, "- N/A -   "
4.11, 147.198, 0.00696965, NaN, NaN, NaN, 0.0323506, "- N/A -   "
4.16, 148.8497, 0.00703907, NaN, NaN, NaN, 0.0384545, "- N/A -   "
4.21, 150.383, 0.00711126, NaN, NaN, NaN, 0.0433376, "- N/A -   "
4.26, 152.27, 0.00718901, NaN, NaN, NaN, 0.04699994, "- N/A -   "
4.31, 154.393, 0.00727509, NaN, NaN, NaN, 0.0445584, "- N/A -   "
4.36, 156.162, 0.00736117, NaN, NaN, NaN, 0.0445584, "- N/A -   "
4.41, 158.2855, 0.00744447, NaN, NaN, NaN, 0.0433376, "- N/A -   "
4.46, 160.409, 0.007536105, NaN, NaN, NaN, 0.04089605, "- N/A -   "
4.51, 162.532, 0.00763051, NaN, NaN, NaN, 0.0347922, "- N/A -   "
4.56, 164.773, 0.007722147, NaN, NaN, NaN, 0.03112983, "- N/A -   "
4.61, 166.66, 0.00780545, NaN, NaN, NaN, 0.03112983, "- N/A -   "
4.66, 168.547, 0.007885976, NaN, NaN, NaN, 0.0323506, "- N/A -   "
4.71, 170.4341, 0.007963724, NaN, NaN, NaN, 0.0347922, "- N/A -   "
4.76, 172.321, 0.008047027, NaN, NaN, NaN, 0.03601294, "- N/A -   "
4.81, 174.326, 0.008127553, NaN, NaN, NaN, 0.03601294, "- N/A -   "
4.86, 176.096, 0.008210856, NaN, NaN, NaN, 0.03601294, "- N/A -   "
4.91, 177.983, 0.008285828, NaN, NaN, NaN, 0.0396753, "- N/A -   "
4.96, 179.752, 0.008363577, NaN, NaN, NaN, 0.04211683, "- N/A -   "
5.01, 181.521, 0.008438549, NaN, NaN, NaN, 0.04577916, "- N/A -   "
5.06, 183.526, 0.008524628, NaN, NaN, NaN, 0.0445584, "- N/A -   "
5.11, 185.885, 0.008621815, NaN, NaN, NaN, 0.0384545, "- N/A -   "
5.16, 188.244, 0.008721777, NaN, NaN, NaN, 0.03112983, "- N/A -   "
5.21, 190.367, 0.008813411, NaN, NaN, NaN, 0.0274675, "- N/A -   "
5.26, 192.254, 0.00889116, NaN, NaN, NaN, 0.03112983, "- N/A -   "
5.31, 194.024, 0.008966132, NaN, NaN, NaN, 0.0335714, "- N/A -   "
5.36, 195.7928, 0.009043881, NaN, NaN, NaN, 0.0372337, "- N/A -   "
5.41, 197.916, 0.009132737, NaN, NaN, NaN, 0.0335714, "- N/A -   "
5.46, 200.275, 0.009221593, NaN, NaN, NaN, 0.03112983, "- N/A -   "
5.51, 202.162, 0.009302119, NaN, NaN, NaN, 0.0335714, "- N/A -   "
5.56, 203.577, 0.009371538, NaN, NaN, NaN, 0.0396753, "- N/A -   "
5.61, 205.347, 0.009440957, NaN, NaN, NaN, 0.0445584, "- N/A -   "
5.66, 207.4696, 0.009529813, NaN, NaN, NaN, 0.04211683, "- N/A -   "
5.71, 209.475, 0.009613114, NaN, NaN, NaN, 0.04211683, "- N/A -   "
5.76, 211.48, 0.009699194, NaN, NaN, NaN, 0.04089605, "- N/A -   "
5.81, 213.603, 0.00979083, NaN, NaN, NaN, 0.0384545, "- N/A -   "
5.86, 215.608, 0.00987413, NaN, NaN, NaN, 0.0372337, "- N/A -   "
5.91, 217.731, 0.009960209, NaN, NaN, NaN, 0.0372337, "- N/A -   "
5.96, 219.6182, 0.0100463, NaN, NaN, NaN, 0.0347922, "- N/A -   "
6.01, 221.859, 0.0101351, NaN, NaN, NaN, 0.0323506, "- N/A -   "
6.06, 223.6284, 0.0102184, NaN, NaN, NaN, 0.0323506, "- N/A -   "
6.11, 225.751, 0.01030175, NaN, NaN, NaN, 0.0323506, "- N/A -   "
6.16, 227.521, 0.0103795, NaN, NaN, NaN, 0.0347922, "- N/A -   "
6.21, 229.408, 0.0104628, NaN, NaN, NaN, 0.03601294, "- N/A -   "
6.26, 231.177, 0.0105406, NaN, NaN, NaN, 0.0372337, "- N/A -   "
6.31, 232.946, 0.0106183, NaN, NaN, NaN, 0.0396753, "- N/A -   "
6.36, 235.0693, 0.0107016, NaN, NaN, NaN, 0.04089605, "- N/A -   "
6.41, 236.603, 0.0107766, NaN, NaN, NaN, 0.0445584, "- N/A -   "
6.46, 238.726, 0.0108627, NaN, NaN, NaN, 0.0433376, "- N/A -   "
6.51, 240.849, 0.0109543, NaN, NaN, NaN, 0.0384545, "- N/A -   "
6.56, 243.207, 0.0110487, NaN, NaN, NaN, 0.0335714, "- N/A -   "
6.61, 245.092, 0.0111376, NaN, NaN, NaN, 0.0323506, "- N/A -   "
6.66, 247.095, 0.0112181, NaN, NaN, NaN, 0.0323506, "- N/A -   "
6.71, 248.863, 0.0113014, NaN, NaN, NaN, 0.0335714, "- N/A -   "
6.76, 250.866, 0.0113875, NaN, NaN, NaN, 0.03112983, "- N/A -   "
6.81, 252.8687, 0.0114763, NaN, NaN, NaN, 0.0286883, "- N/A -   "
6.86, 254.872, 0.0115596, NaN, NaN, NaN, 0.0286883, "- N/A -   "
6.91, 256.639, 0.0116374, NaN, NaN, NaN, 0.03112983, "- N/A -   "
6.96, 257.9352, 0.011704, NaN, NaN, NaN, 0.0396753, "- N/A -   "
7.01, 259.585, 0.0117734, NaN, NaN, NaN, 0.0445584, "- N/A -   "
7.06, 261.352, 0.0118512, NaN, NaN, NaN, 0.0482207, "- N/A -   "
7.11, 263.473, 0.01194, NaN, NaN, NaN, 0.0445584, "- N/A -   "
7.16, 265.5939, 0.0120317, NaN, NaN, NaN, 0.04089605, "- N/A -   "
7.18, 266.537, 0.01207054, NaN, NaN, NaN, 0.0384545, "- N/A -   "
7.19, 266.89, 0.01209, NaN, NaN, NaN, 0.0384545, "- N/A -   "
7.2, 267.243, 0.0121094, NaN, NaN, NaN, 0.03601294, "- N/A -   "
7.21, 267.597, 0.0121261, NaN, NaN, NaN, 0.0372337, "- N/A -   "
7.22, 267.95, 0.0121427, NaN, NaN, NaN, 0.03601294, "- N/A -   "
7.23, 268.422, 0.0121594, NaN, NaN, NaN, 0.03601294, "- N/A -   "
7.24, 268.7752, 0.0121761, NaN, NaN, NaN, 0.03601294, "- N/A -   "
7.25, 269.1287, 0.0121955, NaN, NaN, NaN, 0.03601294, "- N/A -   "
7.26, 269.6, 0.0122122, NaN, NaN, NaN, 0.0347922, "- N/A -   "
7.27, 270.071, 0.0122316, NaN, NaN, NaN, 0.0335714, "- N/A -   "
7.28, 270.425, 0.0122483, NaN, NaN, NaN, 0.0335714, "- N/A -   "
7.29, 270.778, 0.0122649, NaN, NaN, NaN, 0.0335714, "- N/A -   "
7.3, 271.132, 0.0122816, NaN, NaN, NaN, 0.0335714, "- N/A -   "
7.31, 271.603, 0.0122982, NaN, NaN, NaN, 0.0335714, "- N/A -   "
7.32, 271.9565, 0.0123149, NaN, NaN, NaN, 0.0335714, "- N/A -   "
7.33, 272.428, 0.0123343, NaN, NaN, NaN, 0.0323506, "- N/A -   "
7.34, 272.899, 0.0123538, NaN, NaN, NaN, 0.0323506, "- N/A -   "
7.35, 273.37, 0.0123732, NaN, NaN, NaN, 0.03112983, "- N/A -   "
7.36, 273.842, 0.0123926, NaN, NaN, NaN, 0.0286883, "- N/A -   "
7.37, 274.195, 0.0124093, NaN, NaN, NaN, 0.0286883, "- N/A -   "
7.38, 274.667, 0.0124287, NaN, NaN, NaN, 0.0286883, "- N/A -   "
7.39, 274.784, 0.0124426, NaN, NaN, NaN, 0.0286883, "- N/A -   "
7.4, 275.256, 0.0124593, NaN, NaN, NaN, 0.0286883, "- N/A -   "
7.41, 275.609, 0.0124759, NaN, NaN, NaN, 0.0286883, "- N/A -   "
7.42, 276.08, 0.0124926, NaN, NaN, NaN, 0.0286883, "- N/A -   "
7.43, 276.434, 0.0125093, NaN, NaN, NaN, 0.0286883, "- N/A -   "
7.44, 276.787, 0.0125259, NaN, NaN, NaN, 0.0286883, "- N/A -   "
7.45, 277.141, 0.0125426, NaN, NaN, NaN, 0.0286883, "- N/A -   "
7.46, 277.494, 0.0125565, NaN, NaN, NaN, 0.0299091, "- N/A -   "
7.47, 277.73, 0.0125731, NaN, NaN, NaN, 0.0299091, "- N/A -   "
7.48, 278.2013, 0.012587, NaN, NaN, NaN, 0.03112983, "- N/A -   "
7.49, 278.555, 0.0126065, NaN, NaN, NaN, 0.0299091, "- N/A -   "
7.5, 278.908, 0.0126203, NaN, NaN, NaN, 0.03112983, "- N/A -   "
7.51, 279.262, 0.012637, NaN, NaN, NaN, 0.03112983, "- N/A -   "
7.52, 279.615, 0.0126537, NaN, NaN, NaN, 0.0323506, "- N/A -   "
7.53, 279.851, 0.0126675, NaN, NaN, NaN, 0.0323506, "- N/A -   "
7.54, 280.322, 0.0126814, NaN, NaN, NaN, 0.0335714, "- N/A -   "
7.55, 280.44, 0.01269531, NaN, NaN, NaN, 0.0347922, "- N/A -   "
7.56, 280.911, 0.01271197, NaN, NaN, NaN, 0.03601294, "- N/A -   "
7.57, 281.2648, 0.0127259, NaN, NaN, NaN, 0.03601294, "- N/A -   "
7.58, 281.618, 0.0127425, NaN, NaN, NaN, 0.0372337, "- N/A -   "
7.59, 281.8539, 0.0127564, NaN, NaN, NaN, 0.0372337, "- N/A -   "
7.6, 282.207, 0.0127703, NaN, NaN, NaN, 0.0384545, "- N/A -   "
7.61, 282.443, 0.0127869, NaN, NaN, NaN, 0.0384545, "- N/A -   "
7.62, 282.7965, 0.0128008, NaN, NaN, NaN, 0.0396753, "- N/A -   "
7.63, 283.268, 0.0128175, NaN, NaN, NaN, 0.0396753, "- N/A -   "
7.64, 283.503, 0.01283137, NaN, NaN, NaN, 0.04089605, "- N/A -   "
7.65, 283.857, 0.012848, NaN, NaN, NaN, 0.04089605, "- N/A -   "
7.66, 284.21, 0.0128647, NaN, NaN, NaN, 0.04089605, "- N/A -   "
7.67, 284.5639, 0.0128786, NaN, NaN, NaN, 0.04211683, "- N/A -   "
7.68, 285.035, 0.012898, NaN, NaN, NaN, 0.04211683, "- N/A -   "
7.69, 285.271, 0.0129147, NaN, NaN, NaN, 0.04211683, "- N/A -   "
7.7, 285.7422, 0.0129313, NaN, NaN, NaN, 0.04089605, "- N/A -   "
7.71, 286.213, 0.012948, NaN, NaN, NaN, 0.04089605, "- N/A -   "
7.72, 286.567, 0.0129647, NaN, NaN, NaN, 0.04089605, "- N/A -   "
7.73, 286.8026, 0.0129813, NaN, NaN, NaN, 0.04089605, "- N/A -   "
7.74, 287.274, 0.0129952, NaN, NaN, NaN, 0.04211683, "- N/A -   "
7.75, 287.51, 0.01301186, NaN, NaN, NaN, 0.04211683, "- N/A -   "
7.76, 287.981, 0.01302852, NaN, NaN, NaN, 0.04211683, "- N/A -   "
7.77, 288.334, 0.0130452, NaN, NaN, NaN, 0.04211683, "- N/A -   "
7.78, 288.688, 0.01306184, NaN, NaN, NaN, 0.0433376, "- N/A -   "
7.79, 289.041, 0.0130785, NaN, NaN, NaN, 0.0433376, "- N/A -   "
7.8, 289.5126, 0.0130952, NaN, NaN, NaN, 0.04211683, "- N/A -   "
7.81, 289.8661, 0.0131118, NaN, NaN, NaN, 0.04211683, "- N/A -   "
7.82, 290.22, 0.0131285, NaN, NaN, NaN, 0.04211683, "- N/A -   "
7.83, 290.573, 0.0131451, NaN, NaN, NaN, 0.04211683, "- N/A -   "
7.84, 291.044, 0.0131646, NaN, NaN, NaN, 0.04211683, "- N/A -   "
7.85, 291.398, 0.01318124, NaN, NaN, NaN, 0.04089605, "- N/A -   "
7.86, 291.7513, 0.0132007, NaN, NaN, NaN, 0.04089605, "- N/A -   "
7.87, 292.2226, 0.0132201, NaN, NaN, NaN, 0.0396753, "- N/A -   "
7.88, 292.576, 0.0132368, NaN, NaN, NaN, 0.0384545, "- N/A -   "
7.89, 293.165, 0.0132562, NaN, NaN, NaN, 0.0372337, "- N/A -   "
7.9, 293.519, 0.0132784, NaN, NaN, NaN, 0.03601294, "- N/A -   "
7.91, 294.108, 0.0132979, NaN, NaN, NaN, 0.0335714, "- N/A -   "
[...]
26.53, 1062.25, 0.0443281, NaN, NaN, NaN, 0.03601294, "- N/A -   "
26.66, 1068.21, 0.0445502, NaN, NaN, NaN, 0.0335714, "- N/A -   "
26.79, 1073.34, 0.04475013, NaN, NaN, NaN, 0.04089605, "- N/A -   "
26.92, 1079.07, 0.04495561, NaN, NaN, NaN, 0.04577916, "- N/A -   "
27.05, 1085.863, 0.04520274, NaN, NaN, NaN, 0.0323506, "- N/A -   "
27.18, 1091.71, 0.0454193, NaN, NaN, NaN, 0.0323506, "- N/A -   "
27.31, 1097.55, 0.04563869, NaN, NaN, NaN, 0.03112983, "- N/A -   "
27.44, 1102.916, 0.0458386, NaN, NaN, NaN, 0.0384545, "- N/A -   "
27.57, 1108.28, 0.0460441, NaN, NaN, NaN, 0.0433376, "- N/A -   "
27.7, 1114.72, 0.0462773, NaN, NaN, NaN, 0.03601294, "- N/A -   "
27.83, 1120.57, 0.0464995, NaN, NaN, NaN, 0.0335714, "- N/A -   "
27.96, 1126.77, 0.0467244, NaN, NaN, NaN, 0.0299091, "- N/A -   "
28.09, 1131.775, 0.0469188, NaN, NaN, NaN, 0.04089605, "- N/A -   "
28.22, 1137.38, 0.0471243, NaN, NaN, NaN, 0.0445584, "- N/A -   "
28.35, 1143.7, 0.0473575, NaN, NaN, NaN, 0.0372337, "- N/A -   "
28.48, 1150.38, 0.0475991, NaN, NaN, NaN, 0.0262467, "- N/A -   "
28.61, 1155.86, 0.04780178, NaN, NaN, NaN, 0.0323506, "- N/A -   "
28.74, 1161.35, 0.04801, NaN, NaN, NaN, 0.03601294, "- N/A -   "
28.87, 1166.24, 0.04819608, NaN, NaN, NaN, 0.0494415, "- N/A -   "
29, 1172.92, 0.04843766, NaN, NaN, NaN, 0.0396753, "- N/A -   "
29.13, 1179.36, 0.04867646, NaN, NaN, NaN, 0.0286883, "- N/A -   "
29.26, 1184.72, 0.04887361, NaN, NaN, NaN, 0.0372337, "- N/A -   "
29.39, 1190.8, 0.04909297, NaN, NaN, NaN, 0.03601294, "- N/A -   "
29.52, 1196.05, 0.0492957, NaN, NaN, NaN, 0.0433376, "- N/A -   "
29.65, 1202.25, 0.0495178, NaN, NaN, NaN, 0.0396753, "- N/A -   "
29.78, 1208.22, 0.0497427, NaN, NaN, NaN, 0.03601294, "- N/A -   "
29.91, 1214.42, 0.0499704, NaN, NaN, NaN, 0.03112983, "- N/A -   "
30.04, 1220.14, 0.0501815, NaN, NaN, NaN, 0.0335714, "- N/A -   "
30.17, 1225.86, 0.05039249, NaN, NaN, NaN, 0.03601294, "- N/A -   "
30.3, 1231.23, 0.0505952, NaN, NaN, NaN, 0.0433376, "- N/A -   "
30.43, 1237.67, 0.0508229, NaN, NaN, NaN, 0.0372337, "- N/A -   "
30.56, 1243.75, 0.0510478, NaN, NaN, NaN, 0.0335714, "- N/A -   "
30.69, 1249.83, 0.0512727, NaN, NaN, NaN, 0.03112983, "- N/A -   "
30.82, 1255.2, 0.0514782, NaN, NaN, NaN, 0.0372337, "- N/A -   "
30.95, 1260.45, 0.05166702, NaN, NaN, NaN, 0.0494415, "- N/A -   "
31.08, 1267.25, 0.0519114, NaN, NaN, NaN, 0.03601294, "- N/A -   "
31.21, 1273.57, 0.0521446, NaN, NaN, NaN, 0.0299091, "- N/A -   "
31.34, 1279.53, 0.052364, NaN, NaN, NaN, 0.0274675, "- N/A -   "
31.47, 1284.54, 0.0525528, NaN, NaN, NaN, 0.0396753, "- N/A -   "
31.6, 1290.14, 0.05276106, NaN, NaN, NaN, 0.0433376, "- N/A -   "
31.73, 1296.22, 0.0529776, NaN, NaN, NaN, 0.0433376, "- N/A -   "
31.86, 1302.9, 0.0532192, NaN, NaN, NaN, 0.0323506, "- N/A -   "
31.99, 1308.74, 0.053433, NaN, NaN, NaN, 0.0335714, "- N/A -   "
32.12, 1314.35, 0.0536385, NaN, NaN, NaN, 0.0384545, "- N/A -   "
32.25, 1319.84, 0.0538412, NaN, NaN, NaN, 0.04577916, "- N/A -   "
32.38, 1326.04, 0.0540717, NaN, NaN, NaN, 0.0384545, "- N/A -   "
32.51, 1332.71, 0.05430771, NaN, NaN, NaN, 0.0299091, "- N/A -   "
32.64, 1338.32, 0.054516, NaN, NaN, NaN, 0.0335714, "- N/A -   "
32.77, 1344.4, 0.0547353, NaN, NaN, NaN, 0.0323506, "- N/A -   "
32.9, 1349.41, 0.0549269, NaN, NaN, NaN, 0.0445584, "- N/A -   "
33.03, 1355.611, 0.0551491, NaN, NaN, NaN, 0.04089605, "- N/A -   "
33.16, 1361.93, 0.05537676, NaN, NaN, NaN, 0.0372337, "- N/A -   "
33.29, 1367.89, 0.05559335, NaN, NaN, NaN, 0.03601294, "- N/A -   "
33.42, 1373.618, 0.0558099, NaN, NaN, NaN, 0.03601294, "- N/A -   "
33.55, 1379.58, 0.05602652, NaN, NaN, NaN, 0.03601294, "- N/A -   "
33.68, 1385.19, 0.056232, NaN, NaN, NaN, 0.04089605, "- N/A -   "
33.81, 1391.27, 0.05645414, NaN, NaN, NaN, 0.0384545, "- N/A -   "
33.94, 1397.71, 0.05668739, NaN, NaN, NaN, 0.03112983, "- N/A -   "
34.07, 1403.79, 0.0569095, NaN, NaN, NaN, 0.0286883, "- N/A -   "
34.2, 1409.155, 0.0571095, NaN, NaN, NaN, 0.03601294, "- N/A -   "
34.33, 1414.283, 0.05730105, NaN, NaN, NaN, 0.04699994, "- N/A -   "
34.46, 1420.72, 0.0575343, NaN, NaN, NaN, 0.0396753, "- N/A -   "
34.59, 1427.04, 0.0577648, NaN, NaN, NaN, 0.0335714, "- N/A -   "
34.72, 1433.244, 0.0579897, NaN, NaN, NaN, 0.03112983, "- N/A -   "
34.85, 1438.73, 0.0581924, NaN, NaN, NaN, 0.03601294, "- N/A -   "
34.98, 1443.98, 0.05839509, NaN, NaN, NaN, 0.0433376, "- N/A -   "
35.11, 1450.18, 0.0586172, NaN, NaN, NaN, 0.0396753, "- N/A -   "
35.24, 1456.74, 0.0588588, NaN, NaN, NaN, 0.0299091, "- N/A -   "
35.37, 1462.82, 0.0590782, NaN, NaN, NaN, 0.0286883, "- N/A -   "
35.5, 1468.07, 0.0592753, NaN, NaN, NaN, 0.0372337, "- N/A -   "
35.63, 1473.67, 0.0594836, NaN, NaN, NaN, 0.04089605, "- N/A -   "
35.76, 1479.28, 0.0596891, NaN, NaN, NaN, 0.04577916, "- N/A -   "
35.89, 1486.07, 0.05993341, NaN, NaN, NaN, 0.0335714, "- N/A -   "
36.02, 1491.56, 0.0601417, NaN, NaN, NaN, 0.0384545, "- N/A -   "
36.15, 1497.88, 0.06037214, NaN, NaN, NaN, 0.03112983, "- N/A -   "
36.28, 1503.13, 0.0605637, NaN, NaN, NaN, 0.04211683, "- N/A -   "
36.41, 1509.09, 0.0607831, NaN, NaN, NaN, 0.04211683, "- N/A -   "
36.54, 1515.17, 0.061008, NaN, NaN, NaN, 0.0372337, "- N/A -   "
36.67, 1521.37, 0.06123293, NaN, NaN, NaN, 0.0335714, "- N/A -   "
36.8, 1527.453, 0.06145507, NaN, NaN, NaN, 0.03112983, "- N/A -   "
36.93, 1533.18, 0.06166888, NaN, NaN, NaN, 0.0323506, "- N/A -   "
37.06, 1538.19, 0.0618605, NaN, NaN, NaN, 0.0433376, "- N/A -   "
37.19, 1543.91, 0.06207151, NaN, NaN, NaN, 0.04577916, "- N/A -   "
37.32, 1550.83, 0.0623186, NaN, NaN, NaN, 0.0323506, "- N/A -   "
37.45, 1556.55, 0.06253523, NaN, NaN, NaN, 0.0323506, "- N/A -   "
37.58, 1562.39, 0.0627546, NaN, NaN, NaN, 0.0323506, "- N/A -   "
37.71, 1567.4, 0.0629462, NaN, NaN, NaN, 0.0433376, "- N/A -   "
37.84, 1573.25, 0.0631628, NaN, NaN, NaN, 0.0433376, "- N/A -   "
37.97, 1579.8, 0.06340157, NaN, NaN, NaN, 0.0323506, "- N/A -   "
38.1, 1586.01, 0.06362926, NaN, NaN, NaN, 0.0274675, "- N/A -   "
38.23, 1591.49, 0.0638403, NaN, NaN, NaN, 0.03112983, "- N/A -   "
38.36, 1596.26, 0.06402356, NaN, NaN, NaN, 0.0445584, "- N/A -   "
38.49, 1602.1, 0.06424015, NaN, NaN, NaN, 0.04577916, "- N/A -   "
38.62, 1608.66, 0.064479, NaN, NaN, NaN, 0.03601294, "- N/A -   "
38.75, 1614.75, 0.0647066, NaN, NaN, NaN, 0.0299091, "- N/A -   "
38.88, 1620.23, 0.06490657, NaN, NaN, NaN, 0.0372337, "- N/A -   "
39.01, 1625.84, 0.0651204, NaN, NaN, NaN, 0.0384545, "- N/A -   "
39.14, 1631.08, 0.0653231, NaN, NaN, NaN, 0.04577916, "- N/A -   "
39.27, 1638, 0.06557299, NaN, NaN, NaN, 0.0299091, "- N/A -   "
39.4, 1643.49, 0.06578125, NaN, NaN, NaN, 0.0335714, "- N/A -   "
39.53, 1649.45, 0.06600339, NaN, NaN, NaN, 0.03112983, "- N/A -   "
39.66, 1654.81, 0.06620609, NaN, NaN, NaN, 0.0372337, "- N/A -   "
39.79, 1660.3, 0.06641713, NaN, NaN, NaN, 0.04089605, "- N/A -   "
39.92, 1666.26, 0.06663649, NaN, NaN, NaN, 0.0396753, "- N/A -   "
40.05, 1672.22, 0.0668586, NaN, NaN, NaN, 0.0372337, "- N/A -   "
40.18, 1677.949, 0.067078, NaN, NaN, NaN, 0.03601294, "- N/A -   "
40.31, 1683.79, 0.0672974, NaN, NaN, NaN, 0.0347922, "- N/A -   "
40.44, 1689.16, 0.0675028, NaN, NaN, NaN, 0.0396753, "- N/A -   "
40.57, 1694.64, 0.06771109, NaN, NaN, NaN, 0.0433376, "- N/A -   "
40.7, 1701.203, 0.06795545, NaN, NaN, NaN, 0.03112983, "- N/A -   "
40.83, 1706.57, 0.0681637, NaN, NaN, NaN, 0.0347922, "- N/A -   "
40.96, 1712.65, 0.0683914, NaN, NaN, NaN, 0.0299091, "- N/A -   "
41.09, 1717.42, 0.06858022, NaN, NaN, NaN, 0.04211683, "- N/A -   "
41.22, 1722.67, 0.06878292, NaN, NaN, NaN, 0.0482207, "- N/A -   "
41.35, 1729.108, 0.0690245, NaN, NaN, NaN, 0.0372337, "- N/A -   "
41.48, 1735.55, 0.06926052, NaN, NaN, NaN, 0.0286883, "- N/A -   "
41.61, 1740.68, 0.0694688, NaN, NaN, NaN, 0.0335714, "- N/A -   "
41.74, 1745.565, 0.06966037, NaN, NaN, NaN, 0.0445584, "- N/A -   "
41.87, 1751.17, 0.06987418, NaN, NaN, NaN, 0.0445584, "- N/A -   "
42, 1757.49, 0.07011299, NaN, NaN, NaN, 0.0347922, "- N/A -   "
42.13, 1763.69, 0.07034346, NaN, NaN, NaN, 0.0286883, "- N/A -   "
42.26, 1769.18, 0.07055449, NaN, NaN, NaN, 0.03112983, "- N/A -   "
42.39, 1774.19, 0.07075441, NaN, NaN, NaN, 0.0384545, "- N/A -   "
42.52, 1778.96, 0.07094323, NaN, NaN, NaN, 0.05066227, "- N/A -   "
42.65, 1785.63, 0.0711876, NaN, NaN, NaN, 0.0384545, "- N/A -   "
42.78, 1791.83, 0.07142083, NaN, NaN, NaN, 0.03112983, "- N/A -   "
42.91, 1797.44, 0.07163742, NaN, NaN, NaN, 0.0323506, "- N/A -   "
43.04, 1802.81, 0.07184567, NaN, NaN, NaN, 0.03601294, "- N/A -   "
43.17, 1808.05, 0.07204838, NaN, NaN, NaN, 0.04211683, "- N/A -   "
43.188, 1808.89, 0.07207892, NaN, NaN, NaN, 0.04089605, "- N/A -   "