File: 2_Tensile_Data/Hamel_ForceTest_Bolt4_Test5.csv
Time, Load (lb), Position (in), AxialStrain (in), TransverseStrain (in), Auxiliary (), Control Out (V), Stress (psi)
0.0, 1.17947, 0.0, NaN, NaN, NaN, 0.0872856, "- N/A -   "
0.01, 1.65126, 2.49908e-05, NaN, NaN, NaN, 0.095831, "- N/A -   "
0.02, 2.35895, 5.5535e-05, NaN, NaN, NaN, 0.101935, "- N/A -   "
0.03, 2.83074, 8.607931E-5, NaN, NaN, NaN, 0.09705182, "- N/A -   "
0.04, 3.42048, 0.000116624, NaN, NaN, NaN, 0.09094793, "- N/A -   "
0.05, 4.010214, 0.000147168, NaN, NaN, NaN, 0.084844, "- N/A -   "
0.06, 4.59995, 0.000177712, NaN, NaN, NaN, 0.0799609, "- N/A -   "
0.07, 5.071741, 0.000202703, NaN, NaN, NaN, 0.0750778, "- N/A -   "
0.08, 5.425584, 0.000227694, NaN, NaN, NaN, 0.07141549, "- N/A -   "
0.09, 6.01532, 2.526844E-4, NaN, NaN, NaN, 0.06775316, "- N/A -   "
0.1, 6.369163, 2.776752E-4, NaN, NaN, NaN, 0.0653116, "- N/A -   "
0.11, 6.84095, 2.998892E-4, NaN, NaN, NaN, 0.06164927, "- N/A -   "
0.12, 7.312743, 3.221032E-4, NaN, NaN, NaN, 0.0592077, "- N/A -   "
0.13, 7.666586, 0.000344317, NaN, NaN, NaN, 0.05676616, "- N/A -   "
0.14, 8.138375, 3.69308E-4, NaN, NaN, NaN, 0.0543246, "- N/A -   "
0.15, 8.492218, 0.000394299, NaN, NaN, NaN, 0.05066227, "- N/A -   "
0.16, 8.964007, 4.13736E-4, NaN, NaN, NaN, 0.0482207, "- N/A -   "
0.17, 9.435798, 0.00043595, NaN, NaN, NaN, 0.04577916, "- N/A -   "
0.18, 9.907588, 0.000458164, NaN, NaN, NaN, 0.0433376, "- N/A -   "
0.19, 10.26143, 0.000480378, NaN, NaN, NaN, 0.04089605, "- N/A -   "
0.2, 10.6153, 0.000499815, NaN, NaN, NaN, 0.0396753, "- N/A -   "
0.21, 10.9691, 5.164758E-4, NaN, NaN, NaN, 0.0396753, "- N/A -   "
0.22, 11.323, 5.359131E-4, NaN, NaN, NaN, 0.0384545, "- N/A -   "
0.23, 11.6768, 5.525736E-4, NaN, NaN, NaN, 0.0384545, "- N/A -   "
0.27, 12.7383, 0.000619216, NaN, NaN, NaN, 0.0396753, "- N/A -   "
0.31, 14.0357, 0.000677527, NaN, NaN, NaN, 0.04211683, "- N/A -   "
0.35, 15.0973, 7.413927E-4, NaN, NaN, NaN, 0.0433376, "- N/A -   "
0.39, 16.27675, 7.997045E-4, NaN, NaN, NaN, 0.04699994, "- N/A -   "
0.43, 17.4562, 8.663466E-4, NaN, NaN, NaN, 0.0482207, "- N/A -   "
0.47, 18.8716, 9.385421E-4, NaN, NaN, NaN, 0.04577916, "- N/A -   "
0.51, 20.287, 0.00101351, NaN, NaN, NaN, 0.04089605, "- N/A -   "
0.55, 21.7023, 0.00108849, NaN, NaN, NaN, 0.0384545, "- N/A -   "
0.59, 22.9998, 0.00115791, NaN, NaN, NaN, 0.03601294, "- N/A -   "
0.63, 24.29718, 0.00122455, NaN, NaN, NaN, 0.03601294, "- N/A -   "
0.67, 25.5946, 0.00129952, NaN, NaN, NaN, 0.0323506, "- N/A -   "
0.71, 26.892, 0.00137449, NaN, NaN, NaN, 0.0286883, "- N/A -   "
0.75, 28.1894, 0.00144113, NaN, NaN, NaN, 0.0286883, "- N/A -   "
0.79, 29.251, 0.001505, NaN, NaN, NaN, 0.0299091, "- N/A -   "
0.83, 30.3125, 0.00157164, NaN, NaN, NaN, 0.0299091, "- N/A -   "
0.87, 31.374, 0.00163273, NaN, NaN, NaN, 0.0323506, "- N/A -   "
0.91, 32.1997, 0.00168827, NaN, NaN, NaN, 0.0372337, "- N/A -   "
0.95, 33.2612, 0.00174658, NaN, NaN, NaN, 0.04089605, "- N/A -   "
0.99, 34.2048, 0.00180489, NaN, NaN, NaN, 0.0445584, "- N/A -   "
1.03, 35.2663, 0.00187153, NaN, NaN, NaN, 0.0445584, "- N/A -   "
1.07, 36.32782, 0.001935396, NaN, NaN, NaN, 0.04577916, "- N/A -   "
1.11, 37.5073, 0.00200481, NaN, NaN, NaN, 0.0445584, "- N/A -   "
1.15, 38.5688, 0.00207423, NaN, NaN, NaN, 0.0433376, "- N/A -   "
1.19, 39.5124, 0.00214365, NaN, NaN, NaN, 0.04211683, "- N/A -   "
1.23, 40.8098, 0.0022214, NaN, NaN, NaN, 0.0384545, "- N/A -   "
1.27, 42.1072, 0.00229915, NaN, NaN, NaN, 0.0323506, "- N/A -   "
1.31, 43.0508, 0.002371346, NaN, NaN, NaN, 0.0299091, "- N/A -   "
1.35, 43.9944, 0.002440765, NaN, NaN, NaN, 0.0286883, "- N/A -   "
1.39, 44.93799, 0.00250463, NaN, NaN, NaN, 0.03112983, "- N/A -   "
1.43, 45.8816, 0.0025685, NaN, NaN, NaN, 0.03112983, "- N/A -   "
1.47, 46.9431, 0.00262958, NaN, NaN, NaN, 0.0335714, "- N/A -   "
1.51, 47.65078, 0.00269067, NaN, NaN, NaN, 0.03601294, "- N/A -   "
1.55, 48.59436, 0.00275454, NaN, NaN, NaN, 0.0384545, "- N/A -   "
1.59, 49.6559, 0.00282118, NaN, NaN, NaN, 0.0372337, "- N/A -   "
1.63, 50.7174, 0.002887822, NaN, NaN, NaN, 0.0372337, "- N/A -   "
1.67, 51.66099, 0.002943357, NaN, NaN, NaN, 0.04211683, "- N/A -   "
1.71, 52.48662, 0.00300722, NaN, NaN, NaN, 0.0433376, "- N/A -   "
1.75, 53.6661, 0.00307109, NaN, NaN, NaN, 0.0445584, "- N/A -   "
1.79, 54.7276, 0.00313773, NaN, NaN, NaN, 0.0445584, "- N/A -   "
1.83, 56.02505, 0.00321548, NaN, NaN, NaN, 0.04089605, "- N/A -   "
1.87, 57.44042, 0.00329323, NaN, NaN, NaN, 0.0347922, "- N/A -   "
1.91, 58.5019, 0.00336542, NaN, NaN, NaN, 0.0323506, "- N/A -   "
1.95, 59.79937, 0.0034404, NaN, NaN, NaN, 0.0299091, "- N/A -   "
1.99, 60.8609, 0.00350704, NaN, NaN, NaN, 0.0299091, "- N/A -   "
2.03, 61.8045, 0.00356535, NaN, NaN, NaN, 0.0323506, "- N/A -   "
2.07, 62.98395, 0.00363199, NaN, NaN, NaN, 0.0323506, "- N/A -   "
2.11, 64.04548, 0.00369308, NaN, NaN, NaN, 0.0347922, "- N/A -   "
2.15, 65.22495, 0.0037625, NaN, NaN, NaN, 0.0335714, "- N/A -   "
2.19, 66.2865, 0.00383469, NaN, NaN, NaN, 0.0323506, "- N/A -   "
2.23, 67.5839, 0.00389856, NaN, NaN, NaN, 0.0323506, "- N/A -   "
2.27, 68.52748, 0.00395687, NaN, NaN, NaN, 0.03601294, "- N/A -   "
2.31, 69.589, 0.004015183, NaN, NaN, NaN, 0.0396753, "- N/A -   "
2.35, 70.5326, 0.004073495, NaN, NaN, NaN, 0.0433376, "- N/A -   "
2.39, 71.83001, 0.00414291, NaN, NaN, NaN, 0.04211683, "- N/A -   "
2.43, 73.00948, 0.004215109, NaN, NaN, NaN, 0.0396753, "- N/A -   "
2.47, 74.189, 0.00428175, NaN, NaN, NaN, 0.04089605, "- N/A -   "
2.51, 75.36844, 0.004345617, NaN, NaN, NaN, 0.04089605, "- N/A -   "
2.55, 76.5479, 0.00441781, NaN, NaN, NaN, 0.0384545, "- N/A -   "
2.59, 78.08122, 0.00449278, NaN, NaN, NaN, 0.0347922, "- N/A -   "
2.63, 79.14275, 0.00455943, NaN, NaN, NaN, 0.0347922, "- N/A -   "
2.67, 80.20428, 0.004620515, NaN, NaN, NaN, 0.0372337, "- N/A -   "
2.71, 81.5017, 0.00468993, NaN, NaN, NaN, 0.03601294, "- N/A -   "
2.75, 82.79912, 0.00476213, NaN, NaN, NaN, 0.0335714, "- N/A -   "
2.79, 83.9786, 0.00483155, NaN, NaN, NaN, 0.0323506, "- N/A -   "
2.83, 85.276, 0.00489819, NaN, NaN, NaN, 0.0323506, "- N/A -   "
2.87, 86.4555, 0.00496206, NaN, NaN, NaN, 0.0335714, "- N/A -   "
2.91, 87.51702, 0.005025921, NaN, NaN, NaN, 0.0347922, "- N/A -   "
2.95, 88.9324, 0.00509534, NaN, NaN, NaN, 0.0335714, "- N/A -   "
2.99, 90.11186, 0.00516476, NaN, NaN, NaN, 0.0335714, "- N/A -   "
3.03, 91.1734, 0.005225847, NaN, NaN, NaN, 0.0347922, "- N/A -   "
3.07, 92.23492, 0.00528694, NaN, NaN, NaN, 0.0384545, "- N/A -   "
3.11, 93.41439, 0.00534802, NaN, NaN, NaN, 0.0396753, "- N/A -   "
3.15, 94.7118, 0.00540911, NaN, NaN, NaN, 0.04211683, "- N/A -   "
3.19, 95.7733, 0.0054702, NaN, NaN, NaN, 0.0445584, "- N/A -   "
3.23, 97.07077, 0.00553962, NaN, NaN, NaN, 0.0445584, "- N/A -   "
3.27, 98.4861, 0.00560904, NaN, NaN, NaN, 0.04211683, "- N/A -   "
3.31, 99.7836, 0.00568956, NaN, NaN, NaN, 0.03601294, "- N/A -   "
3.35, 101.317, 0.00576454, NaN, NaN, NaN, 0.0323506, "- N/A -   "
3.39, 102.3784, 0.005828402, NaN, NaN, NaN, 0.0335714, "- N/A -   "
3.43, 103.558, 0.00589504, NaN, NaN, NaN, 0.0335714, "- N/A -   "
3.47, 104.855, 0.005964463, NaN, NaN, NaN, 0.0323506, "- N/A -   "
3.51, 106.153, 0.006036659, NaN, NaN, NaN, 0.0299091, "- N/A -   "
3.55, 107.568, 0.006108854, NaN, NaN, NaN, 0.0286883, "- N/A -   "
3.59, 108.512, 0.00616994, NaN, NaN, NaN, 0.03112983, "- N/A -   "
3.63, 109.5732, 0.006233808, NaN, NaN, NaN, 0.0323506, "- N/A -   "
3.67, 110.635, 0.00629212, NaN, NaN, NaN, 0.03601294, "- N/A -   "
3.71, 111.578, 0.006347655, NaN, NaN, NaN, 0.04089605, "- N/A -   "
3.75, 112.64, 0.00640597, NaN, NaN, NaN, 0.0445584, "- N/A -   "
3.79, 113.819, 0.006467055, NaN, NaN, NaN, 0.04699994, "- N/A -   "
3.83, 114.999, 0.00653092, NaN, NaN, NaN, 0.0482207, "- N/A -   "
3.87, 116.296, 0.006600339, NaN, NaN, NaN, 0.04699994, "- N/A -   "
3.91, 117.712, 0.00668087, NaN, NaN, NaN, 0.04211683, "- N/A -   "
3.95, 119.009, 0.00675306, NaN, NaN, NaN, 0.0384545, "- N/A -   "
3.99, 120.424, 0.006828033, NaN, NaN, NaN, 0.0347922, "- N/A -   "
4.03, 121.604, 0.00690023, NaN, NaN, NaN, 0.0323506, "- N/A -   "
4.07, 122.901, 0.00696965, NaN, NaN, NaN, 0.03112983, "- N/A -   "
4.11, 124.081, 0.007036289, NaN, NaN, NaN, 0.03112983, "- N/A -   "
4.15, 125.26, 0.007105708, NaN, NaN, NaN, 0.0299091, "- N/A -   "
4.19, 126.322, 0.00717235, NaN, NaN, NaN, 0.0299091, "- N/A -   "
4.23, 127.619, 0.00723899, NaN, NaN, NaN, 0.0299091, "- N/A -   "
4.27, 128.563, 0.00730008, NaN, NaN, NaN, 0.0323506, "- N/A -   "
4.31, 129.506, 0.00735839, NaN, NaN, NaN, 0.03601294, "- N/A -   "
4.35, 130.568, 0.0074167, NaN, NaN, NaN, 0.0396753, "- N/A -   "
4.39, 131.511, 0.007477793, NaN, NaN, NaN, 0.0433376, "- N/A -   "
4.43, 132.6909, 0.007541658, NaN, NaN, NaN, 0.0433376, "- N/A -   "
4.47, 133.988, 0.0076083, NaN, NaN, NaN, 0.0433376, "- N/A -   "
4.51, 135.1678, 0.007674942, NaN, NaN, NaN, 0.0433376, "- N/A -   "
4.55, 136.229, 0.007741584, NaN, NaN, NaN, 0.0433376, "- N/A -   "
4.59, 137.527, 0.007811003, NaN, NaN, NaN, 0.04211683, "- N/A -   "
4.63, 138.706, 0.007883199, NaN, NaN, NaN, 0.0396753, "- N/A -   "
4.67, 140.1216, 0.007958171, NaN, NaN, NaN, 0.03601294, "- N/A -   "
4.71, 141.419, 0.00803592, NaN, NaN, NaN, 0.03112983, "- N/A -   "
4.75, 142.5985, 0.008105339, NaN, NaN, NaN, 0.0299091, "- N/A -   "
4.79, 143.778, 0.008171981, NaN, NaN, NaN, 0.0299091, "- N/A -   "
4.83, 144.722, 0.008238623, NaN, NaN, NaN, 0.0299091, "- N/A -   "
4.87, 145.901, 0.008299711, NaN, NaN, NaN, 0.0335714, "- N/A -   "
4.91, 146.963, 0.0083608, NaN, NaN, NaN, 0.0347922, "- N/A -   "
4.95, 148.024, 0.008424665, NaN, NaN, NaN, 0.03601294, "- N/A -   "
4.99, 149.3215, 0.00849131, NaN, NaN, NaN, 0.03601294, "- N/A -   "
5.03, 150.501, 0.008557949, NaN, NaN, NaN, 0.03601294, "- N/A -   "
5.07, 151.445, 0.008616261, NaN, NaN, NaN, 0.0396753, "- N/A -   "
5.11, 152.506, 0.008677349, NaN, NaN, NaN, 0.04211683, "- N/A -   "
5.15, 153.686, 0.008741215, NaN, NaN, NaN, 0.0433376, "- N/A -   "
5.19, 154.747, 0.008802303, NaN, NaN, NaN, 0.04577916, "- N/A -   "
5.23, 155.927, 0.008868946, NaN, NaN, NaN, 0.04577916, "- N/A -   "
5.27, 157.578, 0.008952248, NaN, NaN, NaN, 0.0384545, "- N/A -   "
5.31, 158.875, 0.009029997, NaN, NaN, NaN, 0.0335714, "- N/A -   "
5.35, 160.173, 0.009102193, NaN, NaN, NaN, 0.0323506, "- N/A -   "
5.39, 161.352, 0.009174388, NaN, NaN, NaN, 0.0286883, "- N/A -   "
5.43, 162.532, 0.009235477, NaN, NaN, NaN, 0.03112983, "- N/A -   "
5.47, 163.593, 0.009293789, NaN, NaN, NaN, 0.0347922, "- N/A -   "
5.51, 164.537, 0.0093521, NaN, NaN, NaN, 0.0384545, "- N/A -   "
5.55, 165.7162, 0.009421519, NaN, NaN, NaN, 0.0372337, "- N/A -   "
5.59, 167.132, 0.009496491, NaN, NaN, NaN, 0.0335714, "- N/A -   "
5.63, 168.429, 0.009568687, NaN, NaN, NaN, 0.03112983, "- N/A -   "
5.67, 169.608, 0.009629776, NaN, NaN, NaN, 0.0335714, "- N/A -   "
5.71, 170.552, 0.009688088, NaN, NaN, NaN, 0.0372337, "- N/A -   "
5.75, 171.614, 0.009749176, NaN, NaN, NaN, 0.0396753, "- N/A -   "
5.79, 172.911, 0.009815818, NaN, NaN, NaN, 0.0396753, "- N/A -   "
5.83, 174.09, 0.00988246, NaN, NaN, NaN, 0.0396753, "- N/A -   "
5.87, 175.388, 0.009951878, NaN, NaN, NaN, 0.0384545, "- N/A -   "
5.91, 176.449, 0.0100157, NaN, NaN, NaN, 0.0396753, "- N/A -   "
5.95, 177.983, 0.01008794, NaN, NaN, NaN, 0.0372337, "- N/A -   "
5.99, 179.044, 0.0101574, NaN, NaN, NaN, 0.03601294, "- N/A -   "
6.03, 180.224, 0.0102212, NaN, NaN, NaN, 0.0372337, "- N/A -   "
6.07, 181.521, 0.0102879, NaN, NaN, NaN, 0.0372337, "- N/A -   "
6.11, 182.583, 0.0103517, NaN, NaN, NaN, 0.0384545, "- N/A -   "
6.15, 183.8801, 0.0104239, NaN, NaN, NaN, 0.03601294, "- N/A -   "
6.19, 185.178, 0.0104933, NaN, NaN, NaN, 0.0347922, "- N/A -   "
6.2, 185.531, 0.01051, NaN, NaN, NaN, 0.0347922, "- N/A -   "
6.21, 185.767, 0.0105294, NaN, NaN, NaN, 0.0335714, "- N/A -   "
6.22, 186.121, 0.0105461, NaN, NaN, NaN, 0.0335714, "- N/A -   "
6.23, 186.475, 0.0105628, NaN, NaN, NaN, 0.0335714, "- N/A -   "
6.24, 186.711, 0.0105822, NaN, NaN, NaN, 0.0323506, "- N/A -   "
6.25, 187.183, 0.0105989, NaN, NaN, NaN, 0.0323506, "- N/A -   "
6.26, 187.419, 0.0106183, NaN, NaN, NaN, 0.03112983, "- N/A -   "
6.27, 187.654, 0.0106322, NaN, NaN, NaN, 0.0323506, "- N/A -   "
6.28, 188.008, 0.0106488, NaN, NaN, NaN, 0.0323506, "- N/A -   "
6.29, 188.244, 0.0106627, NaN, NaN, NaN, 0.0335714, "- N/A -   "
6.3, 188.598, 0.0106794, NaN, NaN, NaN, 0.0335714, "- N/A -   "
6.31, 188.834, 0.010696, NaN, NaN, NaN, 0.0335714, "- N/A -   "
6.32, 189.0698, 0.0107127, NaN, NaN, NaN, 0.0347922, "- N/A -   "
6.33, 189.424, 0.0107294, NaN, NaN, NaN, 0.0335714, "- N/A -   "
6.34, 189.777, 0.010746, NaN, NaN, NaN, 0.0335714, "- N/A -   "
6.35, 190.131, 0.0107627, NaN, NaN, NaN, 0.0335714, "- N/A -   "
6.36, 190.249, 0.0107794, NaN, NaN, NaN, 0.0335714, "- N/A -   "
6.37, 190.721, 0.010796, NaN, NaN, NaN, 0.0335714, "- N/A -   "
6.38, 191.075, 0.0108154, NaN, NaN, NaN, 0.0323506, "- N/A -   "
6.39, 191.311, 0.0108321, NaN, NaN, NaN, 0.0323506, "- N/A -   "
6.4, 191.665, 0.0108488, NaN, NaN, NaN, 0.0335714, "- N/A -   "
6.41, 191.901, 0.01086543, NaN, NaN, NaN, 0.0323506, "- N/A -   "
6.42, 192.136, 0.0108793, NaN, NaN, NaN, 0.0347922, "- N/A -   "
6.43, 192.372, 0.0108932, NaN, NaN, NaN, 0.0347922, "- N/A -   "
6.44, 192.726, 0.0109099, NaN, NaN, NaN, 0.0347922, "- N/A -   "
6.45, 192.962, 0.0109237, NaN, NaN, NaN, 0.03601294, "- N/A -   "
6.46, 193.3159, 0.0109404, NaN, NaN, NaN, 0.03601294, "- N/A -   "
6.47, 193.434, 0.0109543, NaN, NaN, NaN, 0.0372337, "- N/A -   "
6.48, 193.7877, 0.0109709, NaN, NaN, NaN, 0.0372337, "- N/A -   "
6.49, 194.142, 0.0109848, NaN, NaN, NaN, 0.0384545, "- N/A -   "
6.5, 194.259, 0.0110015, NaN, NaN, NaN, 0.0384545, "- N/A -   "
6.51, 194.613, 0.0110154, NaN, NaN, NaN, 0.0396753, "- N/A -   "
6.52, 194.967, 0.011032, NaN, NaN, NaN, 0.0396753, "- N/A -   "
6.53, 195.085, 0.0110459, NaN, NaN, NaN, 0.04089605, "- N/A -   "
6.54, 195.439, 0.0110598, NaN, NaN, NaN, 0.04211683, "- N/A -   "
6.55, 195.7928, 0.0110765, NaN, NaN, NaN, 0.04211683, "- N/A -   "
6.56, 196.0287, 0.0110931, NaN, NaN, NaN, 0.04211683, "- N/A -   "
6.57, 196.383, 0.0111098, NaN, NaN, NaN, 0.04211683, "- N/A -   "
6.58, 196.618, 0.0111237, NaN, NaN, NaN, 0.0433376, "- N/A -   "
6.59, 196.854, 0.0111403, NaN, NaN, NaN, 0.0433376, "- N/A -   "
6.6, 197.208, 0.011157, NaN, NaN, NaN, 0.0445584, "- N/A -   "
6.61, 197.562, 0.0111709, NaN, NaN, NaN, 0.0445584, "- N/A -   "
6.62, 197.798, 0.0111875, NaN, NaN, NaN, 0.0445584, "- N/A -   "
6.63, 198.152, 0.0112042, NaN, NaN, NaN, 0.0445584, "- N/A -   "
6.64, 198.388, 0.0112236, NaN, NaN, NaN, 0.0433376, "- N/A -   "
6.65, 198.741, 0.0112403, NaN, NaN, NaN, 0.0433376, "- N/A -   "
6.66, 199.095, 0.011257, NaN, NaN, NaN, 0.0433376, "- N/A -   "
6.67, 199.449, 0.0112764, NaN, NaN, NaN, 0.04211683, "- N/A -   "
6.68, 199.803, 0.0112958, NaN, NaN, NaN, 0.04089605, "- N/A -   "
6.69, 200.157, 0.0113153, NaN, NaN, NaN, 0.04089605, "- N/A -   "
6.7, 200.5107, 0.0113347, NaN, NaN, NaN, 0.0384545, "- N/A -   "
6.71, 200.865, 0.0113541, NaN, NaN, NaN, 0.0372337, "- N/A -   "
6.72, 201.336, 0.0113736, NaN, NaN, NaN, 0.03601294, "- N/A -   "
6.73, 201.69, 0.011393, NaN, NaN, NaN, 0.0347922, "- N/A -   "
6.74, 202.044, 0.01141245, NaN, NaN, NaN, 0.0335714, "- N/A -   "
6.75, 202.516, 0.0114291, NaN, NaN, NaN, 0.0335714, "- N/A -   "
6.76, 202.7517, 0.0114485, NaN, NaN, NaN, 0.0323506, "- N/A -   "
6.77, 203.106, 0.0114652, NaN, NaN, NaN, 0.0323506, "- N/A -   "
6.78, 203.459, 0.0114846, NaN, NaN, NaN, 0.03112983, "- N/A -   "
6.79, 203.813, 0.0115041, NaN, NaN, NaN, 0.03112983, "- N/A -   "
6.8, 204.049, 0.0115207, NaN, NaN, NaN, 0.03112983, "- N/A -   "
6.81, 204.285, 0.0115346, NaN, NaN, NaN, 0.03112983, "- N/A -   "
6.82, 204.639, 0.0115513, NaN, NaN, NaN, 0.0323506, "- N/A -   "
6.83, 204.875, 0.0115652, NaN, NaN, NaN, 0.0323506, "- N/A -   "
6.84, 205.2286, 0.0115818, NaN, NaN, NaN, 0.0323506, "- N/A -   "
6.85, 205.465, 0.0115957, NaN, NaN, NaN, 0.0335714, "- N/A -   "
6.86, 205.7, 0.0116096, NaN, NaN, NaN, 0.0347922, "- N/A -   "
6.87, 205.936, 0.0116235, NaN, NaN, NaN, 0.03601294, "- N/A -   "
6.88, 206.29, 0.0116401, NaN, NaN, NaN, 0.03601294, "- N/A -   "
6.89, 206.526, 0.011654, NaN, NaN, NaN, 0.0372337, "- N/A -   "
6.9, 206.762, 0.0116707, NaN, NaN, NaN, 0.03601294, "- N/A -   "
6.91, 207.2337, 0.0116901, NaN, NaN, NaN, 0.03601294, "- N/A -   "
6.92, 207.588, 0.0117096, NaN, NaN, NaN, 0.0347922, "- N/A -   "
6.93, 207.941, 0.0117318, NaN, NaN, NaN, 0.0323506, "- N/A -   "
6.94, 208.4132, 0.0117512, NaN, NaN, NaN, 0.03112983, "- N/A -   "
6.95, 208.767, 0.0117707, NaN, NaN, NaN, 0.0299091, "- N/A -   "
6.96, 209.003, 0.0117901, NaN, NaN, NaN, 0.0299091, "- N/A -   "
6.97, 209.475, 0.0118067, NaN, NaN, NaN, 0.0286883, "- N/A -   "
6.98, 209.711, 0.0118262, NaN, NaN, NaN, 0.0274675, "- N/A -   "
6.99, 210.064, 0.0118428, NaN, NaN, NaN, 0.0274675, "- N/A -   "
7, 210.418, 0.0118595, NaN, NaN, NaN, 0.0274675, "- N/A -   "
7.01, 210.654, 0.0118734, NaN, NaN, NaN, 0.0286883, "- N/A -   "
7.02, 210.89, 0.0118873, NaN, NaN, NaN, 0.0299091, "- N/A -   "
7.03, 211.244, 0.0119012, NaN, NaN, NaN, 0.03112983, "- N/A -   "
7.04, 211.362, 0.0119178, NaN, NaN, NaN, 0.03112983, "- N/A -   "
7.05, 211.716, 0.0119317, NaN, NaN, NaN, 0.0323506, "- N/A -   "
[...]
23.94, 874.848, 0.0400852, NaN, NaN, NaN, 0.03112983, "- N/A -   "
24.01, 878.278, 0.04021292, NaN, NaN, NaN, 0.0262467, "- N/A -   "
24.08, 881.1169, 0.0403212, NaN, NaN, NaN, 0.0299091, "- N/A -   "
24.15, 883.719, 0.040424, NaN, NaN, NaN, 0.03601294, "- N/A -   "
24.22, 886.203, 0.0405239, NaN, NaN, NaN, 0.0433376, "- N/A -   "
24.29, 889.0417, 0.04063221, NaN, NaN, NaN, 0.0482207, "- N/A -   "
24.36, 892.4718, 0.0407572, NaN, NaN, NaN, 0.0433376, "- N/A -   "
24.43, 895.7837, 0.0408877, NaN, NaN, NaN, 0.0372337, "- N/A -   "
24.5, 898.9773, 0.0410043, NaN, NaN, NaN, 0.0372337, "- N/A -   "
24.57, 902.2891, 0.041132, NaN, NaN, NaN, 0.0323506, "- N/A -   "
24.64, 905.364, 0.0412514, NaN, NaN, NaN, 0.03112983, "- N/A -   "
24.71, 908.4397, 0.0413708, NaN, NaN, NaN, 0.0299091, "- N/A -   "
24.78, 911.0419, 0.04147912, NaN, NaN, NaN, 0.0335714, "- N/A -   "
24.85, 913.644, 0.0415791, NaN, NaN, NaN, 0.04089605, "- N/A -   "
24.92, 916.7194, 0.0416957, NaN, NaN, NaN, 0.04211683, "- N/A -   "
24.99, 919.676, 0.0418068, NaN, NaN, NaN, 0.0433376, "- N/A -   "
25.06, 922.6334, 0.0419262, NaN, NaN, NaN, 0.04211683, "- N/A -   "
25.13, 926.3001, 0.04206224, NaN, NaN, NaN, 0.0335714, "- N/A -   "
25.2, 929.7303, 0.0421872, NaN, NaN, NaN, 0.0299091, "- N/A -   "
25.27, 932.9239, 0.04230937, NaN, NaN, NaN, 0.0286883, "- N/A -   "
25.34, 935.763, 0.0424204, NaN, NaN, NaN, 0.03112983, "- N/A -   "
25.41, 938.7196, 0.04252873, NaN, NaN, NaN, 0.0335714, "- N/A -   "
25.48, 941.44, 0.0426454, NaN, NaN, NaN, 0.0347922, "- N/A -   "
25.55, 944.2788, 0.0427509, NaN, NaN, NaN, 0.0384545, "- N/A -   "
25.62, 947.118, 0.04285639, NaN, NaN, NaN, 0.0433376, "- N/A -   "
25.69, 949.838, 0.0429647, NaN, NaN, NaN, 0.04699994, "- N/A -   "
25.76, 953.623, 0.0431007, NaN, NaN, NaN, 0.0384545, "- N/A -   "
25.83, 957.053, 0.0432285, NaN, NaN, NaN, 0.0335714, "- N/A -   "
25.9, 959.8919, 0.0433423, NaN, NaN, NaN, 0.03601294, "- N/A -   "
25.97, 962.8489, 0.04345339, NaN, NaN, NaN, 0.0372337, "- N/A -   "
26.04, 965.9242, 0.0435756, NaN, NaN, NaN, 0.0347922, "- N/A -   "
26.11, 969.3544, 0.04369775, NaN, NaN, NaN, 0.0323506, "- N/A -   "
26.18, 972.1931, 0.0438088, NaN, NaN, NaN, 0.03601294, "- N/A -   "
26.25, 975.032, 0.04391433, NaN, NaN, NaN, 0.04089605, "- N/A -   "
26.32, 978.3437, 0.0440365, NaN, NaN, NaN, 0.0384545, "- N/A -   "
26.39, 981.182, 0.0441476, NaN, NaN, NaN, 0.04089605, "- N/A -   "
26.46, 984.376, 0.04426698, NaN, NaN, NaN, 0.0396753, "- N/A -   "
26.53, 987.57, 0.04438916, NaN, NaN, NaN, 0.0372337, "- N/A -   "
26.6, 990.7632, 0.0445113, NaN, NaN, NaN, 0.0347922, "- N/A -   "
26.67, 994.0751, 0.0446307, NaN, NaN, NaN, 0.0335714, "- N/A -   "
26.74, 997.1503, 0.04475291, NaN, NaN, NaN, 0.0323506, "- N/A -   "
26.81, 1000.11, 0.04486676, NaN, NaN, NaN, 0.0323506, "- N/A -   "
26.88, 1003.18, 0.04497783, NaN, NaN, NaN, 0.0347922, "- N/A -   "
26.95, 1005.78, 0.04508057, NaN, NaN, NaN, 0.04089605, "- N/A -   "
27.02, 1008.74, 0.0451916, NaN, NaN, NaN, 0.0433376, "- N/A -   "
27.09, 1011.7, 0.0453027, NaN, NaN, NaN, 0.04699994, "- N/A -   "
27.16, 1015.15, 0.0454304, NaN, NaN, NaN, 0.04089605, "- N/A -   "
27.23, 1018.6, 0.04556095, NaN, NaN, NaN, 0.0347922, "- N/A -   "
27.3, 1021.82, 0.04567757, NaN, NaN, NaN, 0.0347922, "- N/A -   "
27.37, 1024.81, 0.0457942, NaN, NaN, NaN, 0.0347922, "- N/A -   "
27.44, 1028.26, 0.04592192, NaN, NaN, NaN, 0.03112983, "- N/A -   "
27.51, 1031.25, 0.04603299, NaN, NaN, NaN, 0.0323506, "- N/A -   "
27.58, 1034.11, 0.04613851, NaN, NaN, NaN, 0.0372337, "- N/A -   "
27.65, 1036.61, 0.0462385, NaN, NaN, NaN, 0.0445584, "- N/A -   "
27.72, 1039.71, 0.04635232, NaN, NaN, NaN, 0.04577916, "- N/A -   "
27.79, 1043.17, 0.0464801, NaN, NaN, NaN, 0.04089605, "- N/A -   "
27.86, 1046.629, 0.04660778, NaN, NaN, NaN, 0.03601294, "- N/A -   "
27.93, 1049.97, 0.0467327, NaN, NaN, NaN, 0.0323506, "- N/A -   "
28, 1053.19, 0.0468549, NaN, NaN, NaN, 0.0299091, "- N/A -   "
28.07, 1056.29, 0.0469743, NaN, NaN, NaN, 0.0286883, "- N/A -   "
28.14, 1059.389, 0.04708816, NaN, NaN, NaN, 0.0299091, "- N/A -   "
28.21, 1062.13, 0.0471937, NaN, NaN, NaN, 0.0347922, "- N/A -   "
28.28, 1064.76, 0.0472936, NaN, NaN, NaN, 0.0433376, "- N/A -   "
28.35, 1067.62, 0.04740471, NaN, NaN, NaN, 0.0445584, "- N/A -   "
28.42, 1070.84, 0.04751856, NaN, NaN, NaN, 0.04577916, "- N/A -   "
28.49, 1074.18, 0.0476435, NaN, NaN, NaN, 0.04211683, "- N/A -   "
28.56, 1077.873, 0.04777957, NaN, NaN, NaN, 0.0347922, "- N/A -   "
28.63, 1081.33, 0.0479045, NaN, NaN, NaN, 0.0299091, "- N/A -   "
28.7, 1084.19, 0.04801837, NaN, NaN, NaN, 0.03112983, "- N/A -   "
28.77, 1087.17, 0.0481267, NaN, NaN, NaN, 0.0347922, "- N/A -   "
28.84, 1090.28, 0.0482433, NaN, NaN, NaN, 0.0347922, "- N/A -   "
28.91, 1093.73, 0.0483655, NaN, NaN, NaN, 0.0323506, "- N/A -   "
28.98, 1096.24, 0.0484626, NaN, NaN, NaN, 0.04089605, "- N/A -   "
29.05, 1098.98, 0.04856539, NaN, NaN, NaN, 0.04699994, "- N/A -   "
29.12, 1102.2, 0.04868757, NaN, NaN, NaN, 0.0445584, "- N/A -   "
29.19, 1105.9, 0.04882085, NaN, NaN, NaN, 0.0372337, "- N/A -   "
29.26, 1109.36, 0.04895136, NaN, NaN, NaN, 0.03112983, "- N/A -   "
29.33, 1112.34, 0.04906798, NaN, NaN, NaN, 0.0323506, "- N/A -   "
29.4, 1115.32, 0.0491735, NaN, NaN, NaN, 0.0372337, "- N/A -   "
29.47, 1118.66, 0.04929845, NaN, NaN, NaN, 0.0323506, "- N/A -   "
29.54, 1121.76, 0.0494123, NaN, NaN, NaN, 0.0335714, "- N/A -   "
29.61, 1124.74, 0.0495206, NaN, NaN, NaN, 0.0372337, "- N/A -   "
29.68, 1127.6, 0.0496289, NaN, NaN, NaN, 0.04089605, "- N/A -   "
29.75, 1130.58, 0.04974551, NaN, NaN, NaN, 0.04089605, "- N/A -   "
29.82, 1134.04, 0.0498649, NaN, NaN, NaN, 0.0396753, "- N/A -   "
29.89, 1137.38, 0.0499899, NaN, NaN, NaN, 0.03601294, "- N/A -   "
29.96, 1140.48, 0.0501093, NaN, NaN, NaN, 0.0347922, "- N/A -   "
30.03, 1143.58, 0.0502259, NaN, NaN, NaN, 0.0347922, "- N/A -   "
30.1, 1146.68, 0.05034529, NaN, NaN, NaN, 0.0347922, "- N/A -   "
30.17, 1149.782, 0.0504591, NaN, NaN, NaN, 0.0347922, "- N/A -   "
30.24, 1152.88, 0.0505758, NaN, NaN, NaN, 0.0347922, "- N/A -   "
30.31, 1155.86, 0.0506896, NaN, NaN, NaN, 0.03601294, "- N/A -   "
30.38, 1158.85, 0.0508007, NaN, NaN, NaN, 0.0384545, "- N/A -   "
30.45, 1161.95, 0.0509145, NaN, NaN, NaN, 0.0396753, "- N/A -   "
30.52, 1165.28, 0.0510311, NaN, NaN, NaN, 0.0396753, "- N/A -   "
30.59, 1168.62, 0.05115888, NaN, NaN, NaN, 0.0347922, "- N/A -   "
30.66, 1171.96, 0.0512838, NaN, NaN, NaN, 0.03112983, "- N/A -   "
30.73, 1174.825, 0.0513949, NaN, NaN, NaN, 0.0347922, "- N/A -   "
30.8, 1178.04, 0.0515143, NaN, NaN, NaN, 0.0335714, "- N/A -   "
30.87, 1181.503, 0.051642, NaN, NaN, NaN, 0.0286883, "- N/A -   "
30.94, 1184.365, 0.0517503, NaN, NaN, NaN, 0.0323506, "- N/A -   "
31.01, 1186.63, 0.0518475, NaN, NaN, NaN, 0.04089605, "- N/A -   "
31.08, 1189.37, 0.0519475, NaN, NaN, NaN, 0.0482207, "- N/A -   "
31.15, 1192.47, 0.0520613, NaN, NaN, NaN, 0.0494415, "- N/A -   "
31.22, 1196.05, 0.0521946, NaN, NaN, NaN, 0.04211683, "- N/A -   "
31.29, 1199.51, 0.0523251, NaN, NaN, NaN, 0.03601294, "- N/A -   "
31.36, 1202.85, 0.05244729, NaN, NaN, NaN, 0.0335714, "- N/A -   "
31.43, 1206.19, 0.0525722, NaN, NaN, NaN, 0.0299091, "- N/A -   "
31.5, 1209.29, 0.05268887, NaN, NaN, NaN, 0.0299091, "- N/A -   "
31.57, 1212.15, 0.0527972, NaN, NaN, NaN, 0.0335714, "- N/A -   "
31.64, 1214.77, 0.0528999, NaN, NaN, NaN, 0.0396753, "- N/A -   "
31.71, 1217.398, 0.05300264, NaN, NaN, NaN, 0.04577916, "- N/A -   "
31.78, 1220.62, 0.05312482, NaN, NaN, NaN, 0.0433376, "- N/A -   "
31.85, 1224.08, 0.0532498, NaN, NaN, NaN, 0.0396753, "- N/A -   "
31.92, 1227.18, 0.0533692, NaN, NaN, NaN, 0.0384545, "- N/A -   "
31.99, 1230.87, 0.0535052, NaN, NaN, NaN, 0.03112983, "- N/A -   "
32.06, 1234.21, 0.05362741, NaN, NaN, NaN, 0.0274675, "- N/A -   "
32.13, 1236.96, 0.0537413, NaN, NaN, NaN, 0.0299091, "- N/A -   "
32.2, 1239.82, 0.053844, NaN, NaN, NaN, 0.0347922, "- N/A -   "
32.27, 1242.8, 0.0539578, NaN, NaN, NaN, 0.03601294, "- N/A -   "
32.34, 1245.78, 0.05407169, NaN, NaN, NaN, 0.0372337, "- N/A -   "
32.41, 1248.642, 0.05417443, NaN, NaN, NaN, 0.0433376, "- N/A -   "
32.48, 1251.38, 0.0542827, NaN, NaN, NaN, 0.04699994, "- N/A -   "
32.55, 1254.72, 0.05440768, NaN, NaN, NaN, 0.0433376, "- N/A -   "
32.62, 1258.54, 0.0545437, NaN, NaN, NaN, 0.0347922, "- N/A -   "
32.69, 1261.64, 0.05466869, NaN, NaN, NaN, 0.03112983, "- N/A -   "
32.76, 1264.5, 0.05477143, NaN, NaN, NaN, 0.0372337, "- N/A -   "
32.83, 1267.48, 0.0548881, NaN, NaN, NaN, 0.0372337, "- N/A -   "
32.854, 1268.68, 0.0549325, NaN, NaN, NaN, 0.03601294, "- N/A -   "