File: 2_Tensile_Data/Hamel_ForceTest_Bolt6_Test7.csv
Time, Load (lb), Position (in), AxialStrain (in), TransverseStrain (in), Auxiliary (), Control Out (V), Stress (psi)
0.0, 9.199903, 0.0, NaN, NaN, NaN, -0.006714277, "- N/A -   "
0.01, 9.199903, 0.0, NaN, NaN, NaN, 6.103888E-4, "- N/A -   "
0.02, 9.199903, 2.776752E-6, NaN, NaN, NaN, 0.006714277, "- N/A -   "
0.03, 9.199903, 2.776752E-6, NaN, NaN, NaN, 0.0189221, "- N/A -   "
0.04, 9.199903, 8.330256E-6, NaN, NaN, NaN, 0.03601294, "- N/A -   "
0.05, 9.199903, 1.38838e-05, NaN, NaN, NaN, 0.0531038, "- N/A -   "
0.06, 9.31785, 2.77675e-05, NaN, NaN, NaN, 0.06775316, "- N/A -   "
0.07, 9.553744, 4.442803E-5, NaN, NaN, NaN, 0.07874016, "- N/A -   "
0.08, 9.78964, 6.6642e-05, NaN, NaN, NaN, 0.08850638, "- N/A -   "
0.09, 10.1435, 9.440956E-5, NaN, NaN, NaN, 0.09705182, "- N/A -   "
0.1, 10.3794, 0.000122177, NaN, NaN, NaN, 0.104376, "- N/A -   "
0.11, 10.73322, 1.499446E-4, NaN, NaN, NaN, 0.101935, "- N/A -   "
0.12, 11.0871, 0.000180489, NaN, NaN, NaN, 0.095831, "- N/A -   "
0.13, 11.5589, 0.000208256, NaN, NaN, NaN, 0.09094793, "- N/A -   "
0.14, 11.9127, 0.000233247, NaN, NaN, NaN, 0.0872856, "- N/A -   "
0.15, 12.14859, 0.000261015, NaN, NaN, NaN, 0.08362327, "- N/A -   "
0.16, 12.5024, 2.832287E-4, NaN, NaN, NaN, 0.0799609, "- N/A -   "
0.17, 12.7383, 0.000308219, NaN, NaN, NaN, 0.0762986, "- N/A -   "
0.18, 12.9742, 0.000330433, NaN, NaN, NaN, 0.0750778, "- N/A -   "
0.19, 13.3281, 0.000352647, NaN, NaN, NaN, 0.07263627, "- N/A -   "
0.2, 13.6819, 0.000372085, NaN, NaN, NaN, 0.0701947, "- N/A -   "
0.21, 13.7999, 0.000391522, NaN, NaN, NaN, 0.0689739, "- N/A -   "
0.22, 14.0357, 4.13736E-4, NaN, NaN, NaN, 0.06775316, "- N/A -   "
0.23, 14.2716, 4.331733E-4, NaN, NaN, NaN, 0.06653238, "- N/A -   "
0.24, 14.6255, 4.553873E-4, NaN, NaN, NaN, 0.0640908, "- N/A -   "
0.25, 14.8614, 0.000474825, NaN, NaN, NaN, 0.06164927, "- N/A -   "
0.26, 15.2152, 4.970386E-4, NaN, NaN, NaN, 0.0604285, "- N/A -   "
0.27, 15.4511, 5.164758E-4, NaN, NaN, NaN, 0.0579869, "- N/A -   "
0.28, 15.687, 0.00053869, NaN, NaN, NaN, 0.0555454, "- N/A -   "
0.29, 16.0409, 0.000560904, NaN, NaN, NaN, 0.0543246, "- N/A -   "
0.3, 16.27675, 0.000580341, NaN, NaN, NaN, 0.05188305, "- N/A -   "
0.31, 16.6306, 5.997784E-4, NaN, NaN, NaN, 0.05066227, "- N/A -   "
0.32, 16.86649, 6.219924E-4, NaN, NaN, NaN, 0.0494415, "- N/A -   "
0.33, 17.2203, 6.442064E-4, NaN, NaN, NaN, 0.04699994, "- N/A -   "
0.34, 17.4562, 6.636437E-4, NaN, NaN, NaN, 0.0445584, "- N/A -   "
0.35, 17.8101, 6.858577E-4, NaN, NaN, NaN, 0.04211683, "- N/A -   "
0.36, 18.046, 0.000705295, NaN, NaN, NaN, 0.04089605, "- N/A -   "
0.37, 18.3998, 7.27509E-4, NaN, NaN, NaN, 0.0384545, "- N/A -   "
0.38, 18.5178, 0.000744169, NaN, NaN, NaN, 0.0384545, "- N/A -   "
0.39, 18.7536, 0.000763607, NaN, NaN, NaN, 0.0372337, "- N/A -   "
0.4, 18.9895, 0.000780267, NaN, NaN, NaN, 0.0372337, "- N/A -   "
0.41, 19.3434, 7.997045E-4, NaN, NaN, NaN, 0.03601294, "- N/A -   "
0.42, 19.4613, 8.16365E-4, NaN, NaN, NaN, 0.03601294, "- N/A -   "
0.43, 19.6972, 0.000833026, NaN, NaN, NaN, 0.03601294, "- N/A -   "
0.44, 20.05107, 0.000849686, NaN, NaN, NaN, 0.03601294, "- N/A -   "
0.45, 20.169, 8.635698E-4, NaN, NaN, NaN, 0.0372337, "- N/A -   "
0.46, 20.4049, 8.830071E-4, NaN, NaN, NaN, 0.0372337, "- N/A -   "
0.5, 21.46644, 0.000949649, NaN, NaN, NaN, 0.03601294, "- N/A -   "
0.54, 22.41, 0.00102462, NaN, NaN, NaN, 0.0335714, "- N/A -   "
0.58, 23.4715, 0.001096817, NaN, NaN, NaN, 0.0299091, "- N/A -   "
0.62, 24.4151, 0.001163459, NaN, NaN, NaN, 0.0299091, "- N/A -   "
0.66, 25.3587, 0.00122455, NaN, NaN, NaN, 0.0323506, "- N/A -   "
0.7, 26.0664, 0.00128564, NaN, NaN, NaN, 0.03601294, "- N/A -   "
0.74, 26.7741, 0.00133562, NaN, NaN, NaN, 0.04211683, "- N/A -   "
0.78, 27.5997, 0.00139393, NaN, NaN, NaN, 0.04577916, "- N/A -   "
0.82, 28.6612, 0.00145779, NaN, NaN, NaN, 0.04699994, "- N/A -   "
0.86, 29.4869, 0.00152721, NaN, NaN, NaN, 0.04699994, "- N/A -   "
0.9, 30.5484, 0.001599409, NaN, NaN, NaN, 0.0433376, "- N/A -   "
0.94, 31.72787, 0.00167438, NaN, NaN, NaN, 0.0396753, "- N/A -   "
0.98, 32.9073, 0.00174935, NaN, NaN, NaN, 0.03601294, "- N/A -   "
1.02, 33.8509, 0.00182155, NaN, NaN, NaN, 0.0347922, "- N/A -   "
1.06, 34.9125, 0.001890968, NaN, NaN, NaN, 0.0323506, "- N/A -   "
1.1, 35.85603, 0.00196316, NaN, NaN, NaN, 0.03112983, "- N/A -   "
1.14, 37.0355, 0.00203258, NaN, NaN, NaN, 0.0286883, "- N/A -   "
1.18, 37.9791, 0.00209922, NaN, NaN, NaN, 0.0286883, "- N/A -   "
1.22, 39.04061, 0.00216309, NaN, NaN, NaN, 0.0299091, "- N/A -   "
1.26, 39.98419, 0.00222973, NaN, NaN, NaN, 0.0299091, "- N/A -   "
1.3, 40.8098, 0.00229082, NaN, NaN, NaN, 0.0335714, "- N/A -   "
1.34, 41.6355, 0.00234636, NaN, NaN, NaN, 0.0372337, "- N/A -   "
1.38, 42.579, 0.002404667, NaN, NaN, NaN, 0.04089605, "- N/A -   "
1.42, 43.40467, 0.00246298, NaN, NaN, NaN, 0.0445584, "- N/A -   "
1.46, 44.4662, 0.00252684, NaN, NaN, NaN, 0.04577916, "- N/A -   "
1.5, 45.5277, 0.00259626, NaN, NaN, NaN, 0.0445584, "- N/A -   "
1.54, 46.5893, 0.0026629, NaN, NaN, NaN, 0.0445584, "- N/A -   "
1.58, 47.65078, 0.00273232, NaN, NaN, NaN, 0.0445584, "- N/A -   "
1.62, 48.7123, 0.00280174, NaN, NaN, NaN, 0.04211683, "- N/A -   "
1.66, 50.0097, 0.00287949, NaN, NaN, NaN, 0.0372337, "- N/A -   "
1.7, 51.30715, 0.00296002, NaN, NaN, NaN, 0.0323506, "- N/A -   "
1.74, 52.36868, 0.003032213, NaN, NaN, NaN, 0.0299091, "- N/A -   "
1.78, 53.4302, 0.003098855, NaN, NaN, NaN, 0.0299091, "- N/A -   "
1.82, 54.3738, 0.00315994, NaN, NaN, NaN, 0.03112983, "- N/A -   "
1.86, 55.55326, 0.003226586, NaN, NaN, NaN, 0.0323506, "- N/A -   "
1.9, 56.4968, 0.00328767, NaN, NaN, NaN, 0.0335714, "- N/A -   "
1.94, 57.44042, 0.00335154, NaN, NaN, NaN, 0.0347922, "- N/A -   "
1.98, 58.5019, 0.003415405, NaN, NaN, NaN, 0.03601294, "- N/A -   "
2.02, 59.68142, 0.00348482, NaN, NaN, NaN, 0.0347922, "- N/A -   "
2.06, 60.625, 0.00354869, NaN, NaN, NaN, 0.0372337, "- N/A -   "
2.1, 61.6865, 0.003607, NaN, NaN, NaN, 0.0396753, "- N/A -   "
2.14, 62.5122, 0.00366531, NaN, NaN, NaN, 0.0433376, "- N/A -   "
2.18, 63.5737, 0.00373195, NaN, NaN, NaN, 0.0445584, "- N/A -   "
2.22, 64.6352, 0.00379582, NaN, NaN, NaN, 0.0445584, "- N/A -   "
2.26, 65.93263, 0.00387079, NaN, NaN, NaN, 0.04211683, "- N/A -   "
2.3, 67.23006, 0.00394854, NaN, NaN, NaN, 0.03601294, "- N/A -   "
2.34, 68.40953, 0.00402351, NaN, NaN, NaN, 0.0323506, "- N/A -   "
2.38, 69.707, 0.004095709, NaN, NaN, NaN, 0.0299091, "- N/A -   "
2.42, 70.6505, 0.00416235, NaN, NaN, NaN, 0.0299091, "- N/A -   "
2.46, 71.71206, 0.00422344, NaN, NaN, NaN, 0.0323506, "- N/A -   "
2.5, 72.89154, 0.004287305, NaN, NaN, NaN, 0.0335714, "- N/A -   "
2.54, 74.189, 0.00435672, NaN, NaN, NaN, 0.0335714, "- N/A -   "
2.58, 75.25049, 0.004423366, NaN, NaN, NaN, 0.0323506, "- N/A -   "
2.62, 76.5479, 0.004492785, NaN, NaN, NaN, 0.03112983, "- N/A -   "
2.66, 77.72738, 0.004553873, NaN, NaN, NaN, 0.0347922, "- N/A -   "
2.7, 78.67096, 0.004614962, NaN, NaN, NaN, 0.03601294, "- N/A -   "
2.74, 79.73249, 0.00467605, NaN, NaN, NaN, 0.0396753, "- N/A -   "
2.78, 80.794, 0.00473714, NaN, NaN, NaN, 0.04089605, "- N/A -   "
2.82, 81.97349, 0.004801004, NaN, NaN, NaN, 0.04211683, "- N/A -   "
2.86, 83.15297, 0.0048732, NaN, NaN, NaN, 0.0396753, "- N/A -   "
2.9, 84.33244, 0.004937065, NaN, NaN, NaN, 0.04089605, "- N/A -   "
2.94, 85.62987, 0.00500926, NaN, NaN, NaN, 0.0384545, "- N/A -   "
2.98, 86.80934, 0.00507868, NaN, NaN, NaN, 0.0372337, "- N/A -   "
3.02, 88.10676, 0.005150875, NaN, NaN, NaN, 0.0347922, "- N/A -   "
3.06, 89.28623, 0.00522029, NaN, NaN, NaN, 0.0335714, "- N/A -   "
3.1, 90.34776, 0.005284159, NaN, NaN, NaN, 0.0347922, "- N/A -   "
3.14, 91.76313, 0.00535913, NaN, NaN, NaN, 0.0323506, "- N/A -   "
3.18, 92.94261, 0.005425773, NaN, NaN, NaN, 0.03112983, "- N/A -   "
3.22, 94.0041, 0.00549242, NaN, NaN, NaN, 0.03112983, "- N/A -   "
3.26, 95.06567, 0.00555628, NaN, NaN, NaN, 0.0335714, "- N/A -   "
3.3, 96.00924, 0.00561737, NaN, NaN, NaN, 0.0347922, "- N/A -   "
3.34, 97.18872, 0.00568401, NaN, NaN, NaN, 0.0347922, "- N/A -   "
3.38, 98.3682, 0.00575343, NaN, NaN, NaN, 0.0335714, "- N/A -   "
3.42, 99.42972, 0.005820072, NaN, NaN, NaN, 0.0347922, "- N/A -   "
3.46, 100.491, 0.00587838, NaN, NaN, NaN, 0.0372337, "- N/A -   "
3.5, 101.435, 0.00593947, NaN, NaN, NaN, 0.0396753, "- N/A -   "
3.54, 102.496, 0.00600611, NaN, NaN, NaN, 0.0396753, "- N/A -   "
3.58, 103.558, 0.006067203, NaN, NaN, NaN, 0.04211683, "- N/A -   "
3.62, 104.737, 0.006131068, NaN, NaN, NaN, 0.0445584, "- N/A -   "
3.66, 105.917, 0.006200487, NaN, NaN, NaN, 0.0445584, "- N/A -   "
3.7, 107.0963, 0.006272683, NaN, NaN, NaN, 0.04089605, "- N/A -   "
3.74, 108.394, 0.006347655, NaN, NaN, NaN, 0.0372337, "- N/A -   "
3.78, 109.5732, 0.006425404, NaN, NaN, NaN, 0.0335714, "- N/A -   "
3.82, 110.753, 0.006494823, NaN, NaN, NaN, 0.03112983, "- N/A -   "
3.86, 111.696, 0.006555911, NaN, NaN, NaN, 0.0335714, "- N/A -   "
3.9, 112.758, 0.00662533, NaN, NaN, NaN, 0.0323506, "- N/A -   "
3.94, 113.937, 0.006694749, NaN, NaN, NaN, 0.0323506, "- N/A -   "
3.98, 114.999, 0.006766944, NaN, NaN, NaN, 0.0299091, "- N/A -   "
4.02, 116.06, 0.006828033, NaN, NaN, NaN, 0.03112983, "- N/A -   "
4.06, 117.004, 0.0068919, NaN, NaN, NaN, 0.0335714, "- N/A -   "
4.1, 117.947, 0.006952987, NaN, NaN, NaN, 0.0347922, "- N/A -   "
4.14, 118.7731, 0.00700852, NaN, NaN, NaN, 0.0396753, "- N/A -   "
4.18, 119.599, 0.00706683, NaN, NaN, NaN, 0.0433376, "- N/A -   "
4.22, 120.66, 0.00712515, NaN, NaN, NaN, 0.04699994, "- N/A -   "
4.26, 121.604, 0.00719179, NaN, NaN, NaN, 0.04699994, "- N/A -   "
4.3, 122.783, 0.007263983, NaN, NaN, NaN, 0.0445584, "- N/A -   "
4.34, 123.845, 0.00733896, NaN, NaN, NaN, 0.04089605, "- N/A -   "
4.38, 125.142, 0.00741393, NaN, NaN, NaN, 0.0384545, "- N/A -   "
4.42, 126.204, 0.00748335, NaN, NaN, NaN, 0.03601294, "- N/A -   "
4.46, 127.265, 0.00755277, NaN, NaN, NaN, 0.0347922, "- N/A -   "
4.5, 128.209, 0.007624961, NaN, NaN, NaN, 0.0335714, "- N/A -   "
4.54, 129.506, 0.00769716, NaN, NaN, NaN, 0.0299091, "- N/A -   "
4.58, 130.568, 0.007766575, NaN, NaN, NaN, 0.0286883, "- N/A -   "
4.62, 131.511, 0.007833217, NaN, NaN, NaN, 0.0286883, "- N/A -   "
4.66, 132.455, 0.007899859, NaN, NaN, NaN, 0.0299091, "- N/A -   "
4.7, 133.517, 0.007960948, NaN, NaN, NaN, 0.03112983, "- N/A -   "
4.74, 134.342, 0.00801926, NaN, NaN, NaN, 0.0347922, "- N/A -   "
4.78, 135.1678, 0.008077571, NaN, NaN, NaN, 0.0384545, "- N/A -   "
4.82, 136.111, 0.00813866, NaN, NaN, NaN, 0.04089605, "- N/A -   "
4.86, 137.055, 0.008202525, NaN, NaN, NaN, 0.0433376, "- N/A -   "
4.9, 138.116, 0.008263614, NaN, NaN, NaN, 0.0445584, "- N/A -   "
4.94, 139.178, 0.008330256, NaN, NaN, NaN, 0.0445584, "- N/A -   "
4.98, 140.24, 0.008402451, NaN, NaN, NaN, 0.04211683, "- N/A -   "
5.02, 141.419, 0.008469094, NaN, NaN, NaN, 0.04211683, "- N/A -   "
5.06, 142.5985, 0.008541289, NaN, NaN, NaN, 0.04089605, "- N/A -   "
5.1, 143.896, 0.008616261, NaN, NaN, NaN, 0.03601294, "- N/A -   "
5.14, 145.0754, 0.008691234, NaN, NaN, NaN, 0.0323506, "- N/A -   "
5.18, 146.3728, 0.008766206, NaN, NaN, NaN, 0.0286883, "- N/A -   "
5.22, 147.434, 0.008835625, NaN, NaN, NaN, 0.0286883, "- N/A -   "
5.26, 148.378, 0.008896713, NaN, NaN, NaN, 0.0299091, "- N/A -   "
5.3, 149.439, 0.008960579, NaN, NaN, NaN, 0.03112983, "- N/A -   "
5.34, 150.383, 0.00902722, NaN, NaN, NaN, 0.0323506, "- N/A -   "
5.38, 151.445, 0.009085532, NaN, NaN, NaN, 0.0347922, "- N/A -   "
5.42, 152.388, 0.009149398, NaN, NaN, NaN, 0.03601294, "- N/A -   "
5.46, 153.568, 0.009216039, NaN, NaN, NaN, 0.03601294, "- N/A -   "
5.5, 154.511, 0.009277128, NaN, NaN, NaN, 0.0384545, "- N/A -   "
5.54, 155.455, 0.009338217, NaN, NaN, NaN, 0.04089605, "- N/A -   "
5.58, 156.398, 0.009399305, NaN, NaN, NaN, 0.0433376, "- N/A -   "
5.62, 157.46, 0.009460394, NaN, NaN, NaN, 0.04577916, "- N/A -   "
5.66, 158.7573, 0.009532589, NaN, NaN, NaN, 0.0433376, "- N/A -   "
5.7, 160.055, 0.009610338, NaN, NaN, NaN, 0.0384545, "- N/A -   "
5.74, 161.352, 0.009688087, NaN, NaN, NaN, 0.0347922, "- N/A -   "
5.78, 162.532, 0.009760283, NaN, NaN, NaN, 0.03112983, "- N/A -   "
5.82, 163.711, 0.009829701, NaN, NaN, NaN, 0.0299091, "- N/A -   "
5.86, 164.655, 0.00989079, NaN, NaN, NaN, 0.0323506, "- N/A -   "
5.9, 165.598, 0.009949101, NaN, NaN, NaN, 0.03601294, "- N/A -   "
5.94, 166.66, 0.010013, NaN, NaN, NaN, 0.0372337, "- N/A -   "
5.98, 167.839, 0.0100879, NaN, NaN, NaN, 0.0347922, "- N/A -   "
5.99, 168.193, 0.0101046, NaN, NaN, NaN, 0.0335714, "- N/A -   "
6, 168.547, 0.010124, NaN, NaN, NaN, 0.0335714, "- N/A -   "
6.01, 168.783, 0.0101407, NaN, NaN, NaN, 0.0323506, "- N/A -   "
6.03, 169.491, 0.0101768, NaN, NaN, NaN, 0.03112983, "- N/A -   "
6.05, 169.962, 0.0102101, NaN, NaN, NaN, 0.03112983, "- N/A -   "
6.07, 170.552, 0.0102407, NaN, NaN, NaN, 0.0323506, "- N/A -   "
6.09, 170.906, 0.0102712, NaN, NaN, NaN, 0.0347922, "- N/A -   "
6.11, 171.496, 0.0103017, NaN, NaN, NaN, 0.0347922, "- N/A -   "
6.13, 171.9674, 0.0103323, NaN, NaN, NaN, 0.03601294, "- N/A -   "
6.15, 172.4392, 0.0103628, NaN, NaN, NaN, 0.0384545, "- N/A -   "
6.17, 172.911, 0.0103906, NaN, NaN, NaN, 0.0396753, "- N/A -   "
6.19, 173.383, 0.0104211, NaN, NaN, NaN, 0.04211683, "- N/A -   "
6.21, 173.855, 0.0104517, NaN, NaN, NaN, 0.04211683, "- N/A -   "
6.23, 174.4443, 0.010485, NaN, NaN, NaN, 0.04211683, "- N/A -   "
6.25, 175.034, 0.0105183, NaN, NaN, NaN, 0.04211683, "- N/A -   "
6.27, 175.624, 0.0105544, NaN, NaN, NaN, 0.04089605, "- N/A -   "
6.29, 176.331, 0.0105878, NaN, NaN, NaN, 0.04089605, "- N/A -   "
6.31, 176.803, 0.0106211, NaN, NaN, NaN, 0.04211683, "- N/A -   "
6.33, 177.275, 0.0106516, NaN, NaN, NaN, 0.04211683, "- N/A -   "
6.35, 177.983, 0.0106905, NaN, NaN, NaN, 0.0396753, "- N/A -   "
6.37, 178.572, 0.0107294, NaN, NaN, NaN, 0.0384545, "- N/A -   "
6.39, 179.28, 0.01076269, NaN, NaN, NaN, 0.0384545, "- N/A -   "
6.41, 179.752, 0.010796, NaN, NaN, NaN, 0.0372337, "- N/A -   "
6.43, 180.342, 0.0108321, NaN, NaN, NaN, 0.03601294, "- N/A -   "
6.45, 180.931, 0.0108682, NaN, NaN, NaN, 0.03601294, "- N/A -   "
6.47, 181.521, 0.0108988, NaN, NaN, NaN, 0.03601294, "- N/A -   "
6.49, 182.229, 0.0109321, NaN, NaN, NaN, 0.03601294, "- N/A -   "
6.51, 182.701, 0.0109654, NaN, NaN, NaN, 0.03601294, "- N/A -   "
6.53, 183.29, 0.0109987, NaN, NaN, NaN, 0.03601294, "- N/A -   "
6.55, 183.8801, 0.0110348, NaN, NaN, NaN, 0.0347922, "- N/A -   "
6.57, 184.47, 0.0110709, NaN, NaN, NaN, 0.0335714, "- N/A -   "
6.59, 185.178, 0.011107, NaN, NaN, NaN, 0.0323506, "- N/A -   "
6.61, 185.767, 0.0111403, NaN, NaN, NaN, 0.0323506, "- N/A -   "
6.63, 186.239, 0.01117365, NaN, NaN, NaN, 0.0323506, "- N/A -   "
6.65, 186.947, 0.0112125, NaN, NaN, NaN, 0.0299091, "- N/A -   "
6.67, 187.536, 0.0112486, NaN, NaN, NaN, 0.0299091, "- N/A -   "
6.69, 188.1262, 0.0112792, NaN, NaN, NaN, 0.0299091, "- N/A -   "
6.71, 188.598, 0.0113125, NaN, NaN, NaN, 0.03112983, "- N/A -   "
6.73, 189.0698, 0.011343, NaN, NaN, NaN, 0.03112983, "- N/A -   "
6.75, 189.66, 0.0113736, NaN, NaN, NaN, 0.0323506, "- N/A -   "
6.77, 190.131, 0.0114041, NaN, NaN, NaN, 0.0347922, "- N/A -   "
6.79, 190.721, 0.01143744, NaN, NaN, NaN, 0.0347922, "- N/A -   "
6.81, 191.311, 0.011468, NaN, NaN, NaN, 0.0347922, "- N/A -   "
6.83, 191.7826, 0.0115013, NaN, NaN, NaN, 0.03601294, "- N/A -   "
6.85, 192.254, 0.0115318, NaN, NaN, NaN, 0.03601294, "- N/A -   "
6.87, 192.726, 0.0115624, NaN, NaN, NaN, 0.0372337, "- N/A -   "
6.89, 193.3159, 0.0115957, NaN, NaN, NaN, 0.0384545, "- N/A -   "
6.91, 193.906, 0.0116235, NaN, NaN, NaN, 0.04089605, "- N/A -   "
6.93, 194.259, 0.0116568, NaN, NaN, NaN, 0.0396753, "- N/A -   "
6.95, 194.967, 0.0116901, NaN, NaN, NaN, 0.0396753, "- N/A -   "
6.97, 195.5569, 0.0117234, NaN, NaN, NaN, 0.04089605, "- N/A -   "
6.99, 196.147, 0.0117512, NaN, NaN, NaN, 0.04211683, "- N/A -   "
7.01, 196.618, 0.0117818, NaN, NaN, NaN, 0.0433376, "- N/A -   "
7.03, 197.208, 0.0118151, NaN, NaN, NaN, 0.0445584, "- N/A -   "
7.05, 197.68, 0.0118456, NaN, NaN, NaN, 0.04577916, "- N/A -   "
7.07, 198.388, 0.0118789, NaN, NaN, NaN, 0.0445584, "- N/A -   "
7.09, 198.977, 0.011915, NaN, NaN, NaN, 0.0433376, "- N/A -   "
7.11, 199.685, 0.0119539, NaN, NaN, NaN, 0.04089605, "- N/A -   "
7.13, 200.393, 0.0119956, NaN, NaN, NaN, 0.0372337, "- N/A -   "
7.15, 201.1, 0.0120344, NaN, NaN, NaN, 0.0347922, "- N/A -   "
7.17, 201.808, 0.0120733, NaN, NaN, NaN, 0.0323506, "- N/A -   "
7.19, 202.516, 0.0121094, NaN, NaN, NaN, 0.03112983, "- N/A -   "
7.21, 202.9876, 0.0121427, NaN, NaN, NaN, 0.03112983, "- N/A -   "
7.23, 203.577, 0.01217328, NaN, NaN, NaN, 0.0335714, "- N/A -   "
7.25, 204.049, 0.0122038, NaN, NaN, NaN, 0.0335714, "- N/A -   "
7.27, 204.639, 0.0122371, NaN, NaN, NaN, 0.0335714, "- N/A -   "
7.29, 205.2286, 0.01226769, NaN, NaN, NaN, 0.0347922, "- N/A -   "
7.31, 205.818, 0.01230101, NaN, NaN, NaN, 0.0347922, "- N/A -   "
7.33, 206.408, 0.0123371, NaN, NaN, NaN, 0.0347922, "- N/A -   "
7.35, 207.116, 0.012376, NaN, NaN, NaN, 0.0323506, "- N/A -   "
7.37, 207.941, 0.0124121, NaN, NaN, NaN, 0.0299091, "- N/A -   "
7.39, 208.531, 0.012451, NaN, NaN, NaN, 0.0274675, "- N/A -   "
7.41, 209.121, 0.0124843, NaN, NaN, NaN, 0.0274675, "- N/A -   "
7.43, 209.711, 0.0125176, NaN, NaN, NaN, 0.0274675, "- N/A -   "
[...]
29.05, 1074.77, 0.04854595, NaN, NaN, NaN, 0.0299091, "- N/A -   "
29.24, 1083.12, 0.0488514, NaN, NaN, NaN, 0.0347922, "- N/A -   "
29.43, 1091.11, 0.04914851, NaN, NaN, NaN, 0.0433376, "- N/A -   "
29.62, 1100.65, 0.0494956, NaN, NaN, NaN, 0.0299091, "- N/A -   "
29.81, 1109, 0.0498038, NaN, NaN, NaN, 0.0347922, "- N/A -   "
30, 1117.35, 0.0501093, NaN, NaN, NaN, 0.0384545, "- N/A -   "
30.19, 1125.81, 0.0504175, NaN, NaN, NaN, 0.04211683, "- N/A -   "
30.38, 1134.88, 0.05075347, NaN, NaN, NaN, 0.0347922, "- N/A -   "
30.57, 1143.58, 0.05107002, NaN, NaN, NaN, 0.0335714, "- N/A -   "
30.76, 1151.93, 0.05137824, NaN, NaN, NaN, 0.0372337, "- N/A -   "
30.95, 1160.4, 0.0516865, NaN, NaN, NaN, 0.04211683, "- N/A -   "
31.14, 1169.46, 0.0520224, NaN, NaN, NaN, 0.0335714, "- N/A -   "
31.33, 1178.164, 0.05234455, NaN, NaN, NaN, 0.03112983, "- N/A -   "
31.52, 1185.56, 0.0526194, NaN, NaN, NaN, 0.0494415, "- N/A -   "
31.71, 1194.86, 0.0529665, NaN, NaN, NaN, 0.03601294, "- N/A -   "
31.9, 1203.8, 0.053297, NaN, NaN, NaN, 0.0299091, "- N/A -   "
32.09, 1211.55, 0.0535885, NaN, NaN, NaN, 0.04211683, "- N/A -   "
32.28, 1220.14, 0.0539051, NaN, NaN, NaN, 0.04089605, "- N/A -   "
32.47, 1229.44, 0.0542494, NaN, NaN, NaN, 0.0286883, "- N/A -   "
32.66, 1237.55, 0.0545521, NaN, NaN, NaN, 0.03601294, "- N/A -   "
32.85, 1245.66, 0.05484918, NaN, NaN, NaN, 0.0433376, "- N/A -   "
33.04, 1254.72, 0.0551907, NaN, NaN, NaN, 0.0335714, "- N/A -   "
33.23, 1262.952, 0.05549616, NaN, NaN, NaN, 0.0372337, "- N/A -   "
33.42, 1271.54, 0.0558183, NaN, NaN, NaN, 0.0347922, "- N/A -   "
33.61, 1279.89, 0.0561265, NaN, NaN, NaN, 0.0384545, "- N/A -   "
33.8, 1288.59, 0.0564514, NaN, NaN, NaN, 0.03601294, "- N/A -   "
33.99, 1297.3, 0.0567707, NaN, NaN, NaN, 0.0335714, "- N/A -   "
34.18, 1305.41, 0.05707891, NaN, NaN, NaN, 0.0372337, "- N/A -   "
34.37, 1313.515, 0.0573788, NaN, NaN, NaN, 0.04577916, "- N/A -   "
34.56, 1322.94, 0.0577231, NaN, NaN, NaN, 0.0335714, "- N/A -   "
34.75, 1331.64, 0.05804522, NaN, NaN, NaN, 0.0299091, "- N/A -   "
34.94, 1339.154, 0.05832845, NaN, NaN, NaN, 0.0445584, "- N/A -   "
35.13, 1348.46, 0.0586728, NaN, NaN, NaN, 0.0335714, "- N/A -   "
35.32, 1357.52, 0.05900042, NaN, NaN, NaN, 0.0299091, "- N/A -   "
35.51, 1364.91, 0.0592864, NaN, NaN, NaN, 0.0433376, "- N/A -   "
35.7, 1373.38, 0.0595974, NaN, NaN, NaN, 0.0445584, "- N/A -   "
35.89, 1383.039, 0.05995285, NaN, NaN, NaN, 0.0274675, "- N/A -   "
36.08, 1390.79, 0.0602444, NaN, NaN, NaN, 0.0396753, "- N/A -   "
36.27, 1398.9, 0.0605471, NaN, NaN, NaN, 0.04577916, "- N/A -   "
36.46, 1408.32, 0.0608969, NaN, NaN, NaN, 0.03112983, "- N/A -   "
36.65, 1416.31, 0.0611968, NaN, NaN, NaN, 0.0372337, "- N/A -   "
36.84, 1424.78, 0.0615134, NaN, NaN, NaN, 0.0372337, "- N/A -   "
36.91, 1427.52, 0.0616161, NaN, NaN, NaN, 0.0433376, "- N/A -   "
36.92, 1428, 0.06163, NaN, NaN, NaN, 0.0445584, "- N/A -   "
36.93, 1428.35, 0.0616494, NaN, NaN, NaN, 0.0445584, "- N/A -   "
36.94, 1428.83, 0.0616661, NaN, NaN, NaN, 0.0433376, "- N/A -   "
36.95, 1429.43, 0.0616855, NaN, NaN, NaN, 0.04211683, "- N/A -   "
36.96, 1429.9, 0.06170498, NaN, NaN, NaN, 0.04089605, "- N/A -   "
36.97, 1430.26, 0.06172164, NaN, NaN, NaN, 0.04211683, "- N/A -   "
36.98, 1430.74, 0.0617383, NaN, NaN, NaN, 0.04089605, "- N/A -   "
36.99, 1431.34, 0.06175496, NaN, NaN, NaN, 0.04089605, "- N/A -   "
37, 1431.69, 0.06177162, NaN, NaN, NaN, 0.04089605, "- N/A -   "
37.01, 1432.05, 0.06178828, NaN, NaN, NaN, 0.04089605, "- N/A -   "
37.02, 1432.53, 0.0618049, NaN, NaN, NaN, 0.04211683, "- N/A -   "
37.03, 1433.01, 0.0618188, NaN, NaN, NaN, 0.04211683, "- N/A -   "
37.04, 1433.36, 0.06183549, NaN, NaN, NaN, 0.04211683, "- N/A -   "
37.05, 1433.84, 0.06185215, NaN, NaN, NaN, 0.04211683, "- N/A -   "
37.06, 1434.198, 0.06187159, NaN, NaN, NaN, 0.04211683, "- N/A -   "
37.07, 1434.79, 0.0618882, NaN, NaN, NaN, 0.04089605, "- N/A -   "
37.08, 1435.27, 0.0619077, NaN, NaN, NaN, 0.04089605, "- N/A -   "
37.09, 1435.75, 0.0619243, NaN, NaN, NaN, 0.0396753, "- N/A -   "
37.1, 1436.23, 0.06194378, NaN, NaN, NaN, 0.0396753, "- N/A -   "
37.11, 1436.82, 0.0619604, NaN, NaN, NaN, 0.0396753, "- N/A -   "
37.12, 1437.18, 0.0619771, NaN, NaN, NaN, 0.0384545, "- N/A -   "
37.13, 1437.66, 0.0619965, NaN, NaN, NaN, 0.0384545, "- N/A -   "
37.14, 1438.13, 0.0620132, NaN, NaN, NaN, 0.0372337, "- N/A -   "
37.15, 1438.61, 0.06202986, NaN, NaN, NaN, 0.0372337, "- N/A -   "
37.16, 1439.09, 0.06204652, NaN, NaN, NaN, 0.0372337, "- N/A -   "
37.17, 1439.56, 0.06206596, NaN, NaN, NaN, 0.03601294, "- N/A -   "
37.18, 1440.04, 0.0620854, NaN, NaN, NaN, 0.03601294, "- N/A -   "
37.19, 1440.52, 0.0621021, NaN, NaN, NaN, 0.03601294, "- N/A -   "
37.2, 1440.88, 0.0621187, NaN, NaN, NaN, 0.0347922, "- N/A -   "
37.21, 1441.47, 0.0621354, NaN, NaN, NaN, 0.0347922, "- N/A -   "
37.22, 1441.83, 0.062152, NaN, NaN, NaN, 0.0347922, "- N/A -   "
37.23, 1442.31, 0.0621715, NaN, NaN, NaN, 0.0335714, "- N/A -   "
37.24, 1442.9, 0.0621881, NaN, NaN, NaN, 0.0335714, "- N/A -   "
37.25, 1443.38, 0.0622076, NaN, NaN, NaN, 0.0335714, "- N/A -   "
37.26, 1443.86, 0.06222423, NaN, NaN, NaN, 0.0323506, "- N/A -   "
37.27, 1444.22, 0.0622409, NaN, NaN, NaN, 0.0323506, "- N/A -   "
37.28, 1444.69, 0.0622576, NaN, NaN, NaN, 0.0323506, "- N/A -   "
37.29, 1445.05, 0.0622742, NaN, NaN, NaN, 0.0323506, "- N/A -   "
37.3, 1445.53, 0.0622909, NaN, NaN, NaN, 0.0335714, "- N/A -   "
37.31, 1445.88, 0.0623075, NaN, NaN, NaN, 0.0323506, "- N/A -   "
37.32, 1446.48, 0.0623242, NaN, NaN, NaN, 0.0323506, "- N/A -   "
37.33, 1446.84, 0.0623409, NaN, NaN, NaN, 0.0335714, "- N/A -   "
37.34, 1447.2, 0.0623575, NaN, NaN, NaN, 0.0335714, "- N/A -   "
37.35, 1447.67, 0.0623714, NaN, NaN, NaN, 0.0335714, "- N/A -   "
37.36, 1448.03, 0.0623881, NaN, NaN, NaN, 0.0347922, "- N/A -   "
37.37, 1448.39, 0.0624019, NaN, NaN, NaN, 0.0347922, "- N/A -   "
37.38, 1448.866, 0.0624186, NaN, NaN, NaN, 0.0347922, "- N/A -   "
37.39, 1449.34, 0.0624353, NaN, NaN, NaN, 0.0347922, "- N/A -   "
37.4, 1449.82, 0.0624519, NaN, NaN, NaN, 0.03601294, "- N/A -   "
37.41, 1450.18, 0.06246581, NaN, NaN, NaN, 0.03601294, "- N/A -   "
37.42, 1450.54, 0.06248247, NaN, NaN, NaN, 0.03601294, "- N/A -   "
37.43, 1451.01, 0.06249913, NaN, NaN, NaN, 0.0372337, "- N/A -   "
37.44, 1451.49, 0.062513, NaN, NaN, NaN, 0.0372337, "- N/A -   "
37.45, 1451.85, 0.0625297, NaN, NaN, NaN, 0.0372337, "- N/A -   "
37.46, 1452.32, 0.0625463, NaN, NaN, NaN, 0.0372337, "- N/A -   "
37.47, 1452.682, 0.062563, NaN, NaN, NaN, 0.0372337, "- N/A -   "
37.48, 1453.28, 0.06258243, NaN, NaN, NaN, 0.0372337, "- N/A -   "
37.49, 1453.76, 0.06260187, NaN, NaN, NaN, 0.03601294, "- N/A -   "
37.5, 1454.23, 0.0626213, NaN, NaN, NaN, 0.0347922, "- N/A -   "
37.51, 1454.83, 0.06264074, NaN, NaN, NaN, 0.0335714, "- N/A -   "
37.52, 1455.31, 0.06266018, NaN, NaN, NaN, 0.0323506, "- N/A -   "
37.53, 1455.78, 0.06267684, NaN, NaN, NaN, 0.03112983, "- N/A -   "
37.54, 1456.26, 0.0626935, NaN, NaN, NaN, 0.03112983, "- N/A -   "
37.55, 1456.62, 0.06270739, NaN, NaN, NaN, 0.0323506, "- N/A -   "
37.56, 1456.975, 0.0627213, NaN, NaN, NaN, 0.0335714, "- N/A -   "
37.57, 1457.33, 0.0627352, NaN, NaN, NaN, 0.03601294, "- N/A -   "
37.58, 1457.69, 0.062749, NaN, NaN, NaN, 0.03601294, "- N/A -   "
37.59, 1457.93, 0.0627601, NaN, NaN, NaN, 0.0384545, "- N/A -   "
37.6, 1458.41, 0.0627768, NaN, NaN, NaN, 0.0384545, "- N/A -   "
37.61, 1458.883, 0.06279069, NaN, NaN, NaN, 0.0396753, "- N/A -   "
37.62, 1459.12, 0.06280735, NaN, NaN, NaN, 0.04089605, "- N/A -   "
37.63, 1459.6, 0.06282123, NaN, NaN, NaN, 0.04089605, "- N/A -   "
37.64, 1459.96, 0.06283511, NaN, NaN, NaN, 0.04211683, "- N/A -   "
37.65, 1460.31, 0.06285178, NaN, NaN, NaN, 0.0433376, "- N/A -   "
37.66, 1460.67, 0.06286566, NaN, NaN, NaN, 0.0433376, "- N/A -   "
37.67, 1461.15, 0.06287955, NaN, NaN, NaN, 0.0445584, "- N/A -   "
37.68, 1461.626, 0.06289621, NaN, NaN, NaN, 0.0445584, "- N/A -   "
37.69, 1461.98, 0.06291287, NaN, NaN, NaN, 0.0445584, "- N/A -   "
37.7, 1462.46, 0.0629295, NaN, NaN, NaN, 0.0445584, "- N/A -   "
37.71, 1462.94, 0.0629462, NaN, NaN, NaN, 0.0445584, "- N/A -   "
37.72, 1463.41, 0.0629628, NaN, NaN, NaN, 0.0445584, "- N/A -   "
37.73, 1463.65, 0.06297673, NaN, NaN, NaN, 0.04577916, "- N/A -   "
37.74, 1464.25, 0.0629962, NaN, NaN, NaN, 0.04577916, "- N/A -   "
37.75, 1464.73, 0.06301283, NaN, NaN, NaN, 0.0445584, "- N/A -   "
37.76, 1465.32, 0.06303504, NaN, NaN, NaN, 0.0433376, "- N/A -   "
37.77, 1465.8, 0.0630517, NaN, NaN, NaN, 0.04211683, "- N/A -   "
37.778, 1466.16, 0.06306836, NaN, NaN, NaN, 0.04089605, "- N/A -   "