File: 2_Tensile_Data/Hamel_ForceTest_Bolt6_Test9.csv
Time, Load (lb), Position (in), AxialStrain (in), TransverseStrain (in), Auxiliary (), Control Out (V), Stress (psi)
0.0, 12.9742, 0.0, NaN, NaN, NaN, -0.007935055, "- N/A -   "
0.01, 12.9742, -2.776752E-6, NaN, NaN, NaN, 6.103888E-4, "- N/A -   "
0.02, 12.9742, 0.0, NaN, NaN, NaN, 0.006714277, "- N/A -   "
0.03, 12.9742, 0.0, NaN, NaN, NaN, 0.0238052, "- N/A -   "
0.04, 12.9742, 5.553504E-6, NaN, NaN, NaN, 0.04089605, "- N/A -   "
0.05, 13.09217, 1.38838e-05, NaN, NaN, NaN, 0.05676616, "- N/A -   "
0.06, 13.446, 2.77675e-05, NaN, NaN, NaN, 0.0701947, "- N/A -   "
0.07, 13.7999, 4.442803E-5, NaN, NaN, NaN, 0.08240249, "- N/A -   "
0.08, 14.2716, 7.21955e-05, NaN, NaN, NaN, 0.09094793, "- N/A -   "
0.09, 14.8614, 9.718631E-5, NaN, NaN, NaN, 0.0982726, "- N/A -   "
0.1, 15.4511, 0.000127731, NaN, NaN, NaN, 0.105597, "- N/A -   "
0.11, 16.0409, 1.610516E-4, NaN, NaN, NaN, 0.0982726, "- N/A -   "
0.12, 16.74854, 0.000191596, NaN, NaN, NaN, 0.09094793, "- N/A -   "
0.13, 17.3383, 2.193634E-4, NaN, NaN, NaN, 0.08606482, "- N/A -   "
0.14, 17.8101, 0.000244354, NaN, NaN, NaN, 0.08240249, "- N/A -   "
0.15, 18.16391, 0.000269345, NaN, NaN, NaN, 0.07874016, "- N/A -   "
0.16, 18.6357, 0.000291559, NaN, NaN, NaN, 0.0762986, "- N/A -   "
0.17, 19.1075, 0.000313773, NaN, NaN, NaN, 0.0750778, "- N/A -   "
0.18, 19.3434, 0.000330433, NaN, NaN, NaN, 0.07385705, "- N/A -   "
0.19, 19.8152, 0.000349871, NaN, NaN, NaN, 0.07263627, "- N/A -   "
0.2, 20.287, 3.69308E-4, NaN, NaN, NaN, 0.07141549, "- N/A -   "
0.21, 20.52286, 0.000391522, NaN, NaN, NaN, 0.0701947, "- N/A -   "
0.22, 20.8767, 0.000410959, NaN, NaN, NaN, 0.0689739, "- N/A -   "
0.23, 21.3485, 0.000430397, NaN, NaN, NaN, 0.06775316, "- N/A -   "
0.24, 21.7023, 0.000449834, NaN, NaN, NaN, 0.0653116, "- N/A -   "
0.25, 22.1741, 0.000469271, NaN, NaN, NaN, 0.0640908, "- N/A -   "
0.26, 22.528, 0.000491485, NaN, NaN, NaN, 0.06287005, "- N/A -   "
0.27, 22.88181, 5.081456E-4, NaN, NaN, NaN, 0.06164927, "- N/A -   "
0.28, 23.2357, 0.000527583, NaN, NaN, NaN, 0.0604285, "- N/A -   "
0.29, 23.5895, 5.470201E-4, NaN, NaN, NaN, 0.0592077, "- N/A -   "
0.3, 23.9433, 5.664574E-4, NaN, NaN, NaN, 0.0579869, "- N/A -   "
0.31, 24.29718, 0.000588671, NaN, NaN, NaN, 0.0555454, "- N/A -   "
0.32, 24.769, 0.000608109, NaN, NaN, NaN, 0.0543246, "- N/A -   "
0.33, 25.2408, 0.000630323, NaN, NaN, NaN, 0.0531038, "- N/A -   "
0.34, 25.4767, 0.000646983, NaN, NaN, NaN, 0.05188305, "- N/A -   "
0.35, 25.8305, 6.691972E-4, NaN, NaN, NaN, 0.05066227, "- N/A -   "
0.36, 26.3023, 0.000688634, NaN, NaN, NaN, 0.0482207, "- N/A -   "
0.37, 26.6561, 7.108485E-4, NaN, NaN, NaN, 0.04577916, "- N/A -   "
0.38, 27.1279, 7.302857E-4, NaN, NaN, NaN, 0.0445584, "- N/A -   "
0.39, 27.4818, 0.0007525, NaN, NaN, NaN, 0.0433376, "- N/A -   "
0.4, 27.7177, 7.691603E-4, NaN, NaN, NaN, 0.04211683, "- N/A -   "
0.41, 28.3074, 7.885975E-4, NaN, NaN, NaN, 0.04089605, "- N/A -   "
0.42, 28.6612, 8.080348E-4, NaN, NaN, NaN, 0.0396753, "- N/A -   "
0.43, 29.0151, 8.27472E-4, NaN, NaN, NaN, 0.0396753, "- N/A -   "
0.44, 29.251, 0.000844133, NaN, NaN, NaN, 0.0384545, "- N/A -   "
0.45, 29.6048, 0.000860793, NaN, NaN, NaN, 0.0384545, "- N/A -   "
0.46, 29.84071, 8.774536E-4, NaN, NaN, NaN, 0.0384545, "- N/A -   "
0.47, 30.1946, 8.968908E-4, NaN, NaN, NaN, 0.0372337, "- N/A -   "
0.48, 30.5484, 0.000913551, NaN, NaN, NaN, 0.0372337, "- N/A -   "
0.49, 31.0202, 9.329886E-4, NaN, NaN, NaN, 0.03601294, "- N/A -   "
0.5, 31.374, 9.524259E-4, NaN, NaN, NaN, 0.0347922, "- N/A -   "
0.51, 31.72787, 0.000971863, NaN, NaN, NaN, 0.0335714, "- N/A -   "
0.55, 33.1432, 0.00104406, NaN, NaN, NaN, 0.03112983, "- N/A -   "
0.59, 34.3227, 0.0011107, NaN, NaN, NaN, 0.03112983, "- N/A -   "
0.63, 35.7381, 0.00117734, NaN, NaN, NaN, 0.03112983, "- N/A -   "
0.67, 36.9176, 0.001241208, NaN, NaN, NaN, 0.0335714, "- N/A -   "
0.71, 38.097, 0.0013023, NaN, NaN, NaN, 0.03601294, "- N/A -   "
0.75, 39.2765, 0.00136339, NaN, NaN, NaN, 0.0384545, "- N/A -   "
0.79, 40.456, 0.00142447, NaN, NaN, NaN, 0.04089605, "- N/A -   "
0.83, 41.6355, 0.00148279, NaN, NaN, NaN, 0.0433376, "- N/A -   "
0.87, 42.8149, 0.00154943, NaN, NaN, NaN, 0.0433376, "- N/A -   "
0.91, 44.2303, 0.00161885, NaN, NaN, NaN, 0.0433376, "- N/A -   "
0.95, 45.6457, 0.00168271, NaN, NaN, NaN, 0.0433376, "- N/A -   "
0.99, 47.061, 0.00175491, NaN, NaN, NaN, 0.04211683, "- N/A -   "
1.03, 48.47641, 0.00182155, NaN, NaN, NaN, 0.04089605, "- N/A -   "
1.07, 50.0097, 0.0018993, NaN, NaN, NaN, 0.03601294, "- N/A -   "
1.11, 51.66099, 0.001982601, NaN, NaN, NaN, 0.0286883, "- N/A -   "
1.15, 53.0764, 0.00205202, NaN, NaN, NaN, 0.0274675, "- N/A -   "
1.19, 54.4917, 0.00211866, NaN, NaN, NaN, 0.0274675, "- N/A -   "
1.23, 55.6712, 0.00217975, NaN, NaN, NaN, 0.03112983, "- N/A -   "
1.27, 56.85068, 0.00224084, NaN, NaN, NaN, 0.0323506, "- N/A -   "
1.31, 58.384, 0.002304704, NaN, NaN, NaN, 0.0335714, "- N/A -   "
1.35, 59.68142, 0.00237412, NaN, NaN, NaN, 0.0323506, "- N/A -   "
1.39, 61.09679, 0.00243521, NaN, NaN, NaN, 0.0347922, "- N/A -   "
1.43, 62.3942, 0.00249908, NaN, NaN, NaN, 0.0372337, "- N/A -   "
1.47, 63.6916, 0.00256017, NaN, NaN, NaN, 0.0384545, "- N/A -   "
1.51, 64.98906, 0.00262125, NaN, NaN, NaN, 0.04089605, "- N/A -   "
1.55, 66.16853, 0.00267957, NaN, NaN, NaN, 0.0445584, "- N/A -   "
1.59, 67.46596, 0.002743431, NaN, NaN, NaN, 0.04577916, "- N/A -   "
1.63, 68.8813, 0.00281007, NaN, NaN, NaN, 0.04577916, "- N/A -   "
1.67, 70.6505, 0.002887822, NaN, NaN, NaN, 0.04211683, "- N/A -   "
1.71, 72.3018, 0.00296279, NaN, NaN, NaN, 0.0372337, "- N/A -   "
1.75, 73.71717, 0.00303499, NaN, NaN, NaN, 0.03601294, "- N/A -   "
1.79, 75.36844, 0.00310441, NaN, NaN, NaN, 0.0335714, "- N/A -   "
1.83, 76.6659, 0.00317105, NaN, NaN, NaN, 0.0335714, "- N/A -   "
1.87, 78.08122, 0.00323769, NaN, NaN, NaN, 0.0347922, "- N/A -   "
1.91, 79.37865, 0.003298781, NaN, NaN, NaN, 0.03601294, "- N/A -   "
1.95, 80.794, 0.00336542, NaN, NaN, NaN, 0.03601294, "- N/A -   "
1.99, 82.32734, 0.00343762, NaN, NaN, NaN, 0.0335714, "- N/A -   "
2.03, 83.86065, 0.00350704, NaN, NaN, NaN, 0.0335714, "- N/A -   "
2.07, 85.15807, 0.00356535, NaN, NaN, NaN, 0.03601294, "- N/A -   "
2.11, 86.57345, 0.00362644, NaN, NaN, NaN, 0.0384545, "- N/A -   "
2.15, 87.75292, 0.0036903, NaN, NaN, NaN, 0.0396753, "- N/A -   "
2.19, 89.16828, 0.00375139, NaN, NaN, NaN, 0.04211683, "- N/A -   "
2.23, 90.70161, 0.003826364, NaN, NaN, NaN, 0.0396753, "- N/A -   "
2.27, 92.35287, 0.00389301, NaN, NaN, NaN, 0.0384545, "- N/A -   "
2.31, 93.65029, 0.003962425, NaN, NaN, NaN, 0.0384545, "- N/A -   "
2.35, 95.18361, 0.00403462, NaN, NaN, NaN, 0.03601294, "- N/A -   "
2.39, 96.71693, 0.00410126, NaN, NaN, NaN, 0.03601294, "- N/A -   "
2.43, 98.13229, 0.004165128, NaN, NaN, NaN, 0.03601294, "- N/A -   "
2.47, 99.54767, 0.00423177, NaN, NaN, NaN, 0.03601294, "- N/A -   "
2.51, 100.963, 0.00430397, NaN, NaN, NaN, 0.0347922, "- N/A -   "
2.55, 102.6143, 0.004376161, NaN, NaN, NaN, 0.03112983, "- N/A -   "
2.59, 103.912, 0.00444003, NaN, NaN, NaN, 0.0323506, "- N/A -   "
2.63, 105.209, 0.00450667, NaN, NaN, NaN, 0.0323506, "- N/A -   "
2.67, 106.86, 0.004576087, NaN, NaN, NaN, 0.0323506, "- N/A -   "
2.71, 108.158, 0.00463718, NaN, NaN, NaN, 0.0335714, "- N/A -   "
2.75, 109.5732, 0.00470382, NaN, NaN, NaN, 0.0335714, "- N/A -   "
2.79, 110.871, 0.00477046, NaN, NaN, NaN, 0.0335714, "- N/A -   "
2.83, 112.168, 0.0048371, NaN, NaN, NaN, 0.0335714, "- N/A -   "
2.87, 113.348, 0.004892637, NaN, NaN, NaN, 0.0384545, "- N/A -   "
2.91, 114.763, 0.00495373, NaN, NaN, NaN, 0.04211683, "- N/A -   "
2.95, 116.06, 0.005017591, NaN, NaN, NaN, 0.0433376, "- N/A -   "
2.99, 117.24, 0.00507868, NaN, NaN, NaN, 0.0445584, "- N/A -   "
3.03, 118.7731, 0.005145321, NaN, NaN, NaN, 0.04577916, "- N/A -   "
3.07, 120.188, 0.00521474, NaN, NaN, NaN, 0.0445584, "- N/A -   "
3.11, 121.722, 0.00528694, NaN, NaN, NaN, 0.04089605, "- N/A -   "
3.15, 123.491, 0.005364685, NaN, NaN, NaN, 0.03601294, "- N/A -   "
3.19, 125.142, 0.00543966, NaN, NaN, NaN, 0.0335714, "- N/A -   "
3.23, 126.558, 0.00550352, NaN, NaN, NaN, 0.0347922, "- N/A -   "
3.27, 127.855, 0.005570164, NaN, NaN, NaN, 0.0347922, "- N/A -   "
3.31, 129.152, 0.00563403, NaN, NaN, NaN, 0.0347922, "- N/A -   "
3.35, 130.922, 0.005709002, NaN, NaN, NaN, 0.03112983, "- N/A -   "
3.39, 132.455, 0.005775644, NaN, NaN, NaN, 0.03112983, "- N/A -   "
3.43, 133.752, 0.00583951, NaN, NaN, NaN, 0.0323506, "- N/A -   "
3.47, 134.932, 0.005903374, NaN, NaN, NaN, 0.0347922, "- N/A -   "
3.51, 136.465, 0.00596446, NaN, NaN, NaN, 0.03601294, "- N/A -   "
3.55, 137.527, 0.006022774, NaN, NaN, NaN, 0.04089605, "- N/A -   "
3.59, 139.178, 0.006083864, NaN, NaN, NaN, 0.04211683, "- N/A -   "
3.63, 140.357, 0.00614218, NaN, NaN, NaN, 0.04699994, "- N/A -   "
3.67, 141.773, 0.00620882, NaN, NaN, NaN, 0.04699994, "- N/A -   "
3.71, 143.542, 0.006286566, NaN, NaN, NaN, 0.04211683, "- N/A -   "
3.75, 145.311, 0.006361538, NaN, NaN, NaN, 0.0384545, "- N/A -   "
3.79, 146.8446, 0.006430958, NaN, NaN, NaN, 0.0372337, "- N/A -   "
3.83, 148.378, 0.006500376, NaN, NaN, NaN, 0.03601294, "- N/A -   "
3.87, 149.793, 0.006572572, NaN, NaN, NaN, 0.0347922, "- N/A -   "
3.91, 151.5625, 0.00664199, NaN, NaN, NaN, 0.0323506, "- N/A -   "
3.95, 153.214, 0.00671696, NaN, NaN, NaN, 0.0286883, "- N/A -   "
3.99, 154.747, 0.0067836, NaN, NaN, NaN, 0.0286883, "- N/A -   "
4.03, 156.162, 0.006850247, NaN, NaN, NaN, 0.0286883, "- N/A -   "
4.07, 157.696, 0.00691689, NaN, NaN, NaN, 0.0299091, "- N/A -   "
4.11, 158.875, 0.0069752, NaN, NaN, NaN, 0.0335714, "- N/A -   "
4.15, 160.173, 0.00703351, NaN, NaN, NaN, 0.03601294, "- N/A -   "
4.19, 161.4701, 0.00709182, NaN, NaN, NaN, 0.0396753, "- N/A -   "
4.23, 162.768, 0.00715014, NaN, NaN, NaN, 0.0433376, "- N/A -   "
4.27, 164.183, 0.00721122, NaN, NaN, NaN, 0.04577916, "- N/A -   "
4.31, 165.7162, 0.007277867, NaN, NaN, NaN, 0.04577916, "- N/A -   "
4.35, 167.132, 0.00734451, NaN, NaN, NaN, 0.04577916, "- N/A -   "
4.39, 168.665, 0.00741115, NaN, NaN, NaN, 0.04577916, "- N/A -   "
4.43, 170.316, 0.00748335, NaN, NaN, NaN, 0.0433376, "- N/A -   "
4.47, 171.9674, 0.007558319, NaN, NaN, NaN, 0.0396753, "- N/A -   "
4.51, 173.855, 0.00763884, NaN, NaN, NaN, 0.0335714, "- N/A -   "
4.55, 175.624, 0.007708263, NaN, NaN, NaN, 0.0323506, "- N/A -   "
4.59, 177.039, 0.007780459, NaN, NaN, NaN, 0.0299091, "- N/A -   "
4.63, 178.572, 0.0078471, NaN, NaN, NaN, 0.0299091, "- N/A -   "
4.67, 179.87, 0.007908189, NaN, NaN, NaN, 0.0323506, "- N/A -   "
4.71, 181.285, 0.007966501, NaN, NaN, NaN, 0.03601294, "- N/A -   "
4.75, 182.701, 0.008033143, NaN, NaN, NaN, 0.03601294, "- N/A -   "
4.79, 184.234, 0.008097009, NaN, NaN, NaN, 0.0372337, "- N/A -   "
4.83, 185.767, 0.008166427, NaN, NaN, NaN, 0.0372337, "- N/A -   "
4.87, 187.419, 0.008230293, NaN, NaN, NaN, 0.0372337, "- N/A -   "
4.91, 188.598, 0.008291381, NaN, NaN, NaN, 0.0396753, "- N/A -   "
4.95, 190.131, 0.00835247, NaN, NaN, NaN, 0.04211683, "- N/A -   "
4.99, 191.429, 0.008416335, NaN, NaN, NaN, 0.0433376, "- N/A -   "
5.03, 192.844, 0.008477423, NaN, NaN, NaN, 0.04699994, "- N/A -   "
5.07, 194.377, 0.008546841, NaN, NaN, NaN, 0.0445584, "- N/A -   "
5.11, 196.383, 0.008630145, NaN, NaN, NaN, 0.0384545, "- N/A -   "
5.15, 198.27, 0.008705118, NaN, NaN, NaN, 0.0335714, "- N/A -   "
5.19, 199.921, 0.008777313, NaN, NaN, NaN, 0.03112983, "- N/A -   "
5.23, 201.336, 0.008843956, NaN, NaN, NaN, 0.03112983, "- N/A -   "
5.27, 202.7517, 0.00890782, NaN, NaN, NaN, 0.0323506, "- N/A -   "
5.31, 204.285, 0.008971686, NaN, NaN, NaN, 0.0335714, "- N/A -   "
5.35, 205.7, 0.009038327, NaN, NaN, NaN, 0.0347922, "- N/A -   "
5.39, 207.2337, 0.009102192, NaN, NaN, NaN, 0.0347922, "- N/A -   "
5.43, 208.885, 0.009174388, NaN, NaN, NaN, 0.0323506, "- N/A -   "
5.47, 210.3, 0.00924103, NaN, NaN, NaN, 0.0323506, "- N/A -   "
5.51, 211.716, 0.009299342, NaN, NaN, NaN, 0.03601294, "- N/A -   "
5.55, 213.013, 0.009357654, NaN, NaN, NaN, 0.0396753, "- N/A -   "
5.59, 214.4285, 0.009418742, NaN, NaN, NaN, 0.04211683, "- N/A -   "
5.63, 216.08, 0.009488162, NaN, NaN, NaN, 0.04089605, "- N/A -   "
5.67, 217.613, 0.009554803, NaN, NaN, NaN, 0.04211683, "- N/A -   "
5.71, 219.028, 0.009621446, NaN, NaN, NaN, 0.04089605, "- N/A -   "
5.75, 220.68, 0.009693641, NaN, NaN, NaN, 0.0384545, "- N/A -   "
5.79, 222.331, 0.00976306, NaN, NaN, NaN, 0.0372337, "- N/A -   "
5.83, 223.8643, 0.009829702, NaN, NaN, NaN, 0.0372337, "- N/A -   "
5.87, 225.398, 0.009896344, NaN, NaN, NaN, 0.0372337, "- N/A -   "
5.91, 226.813, 0.00996021, NaN, NaN, NaN, 0.0384545, "- N/A -   "
5.95, 228.5822, 0.0100352, NaN, NaN, NaN, 0.0347922, "- N/A -   "
5.99, 230.233, 0.0101102, NaN, NaN, NaN, 0.0323506, "- N/A -   "
6, 230.587, 0.010124, NaN, NaN, NaN, 0.0323506, "- N/A -   "
6.01, 231.0591, 0.0101407, NaN, NaN, NaN, 0.0323506, "- N/A -   "
6.03, 231.649, 0.010174, NaN, NaN, NaN, 0.0335714, "- N/A -   "
6.05, 232.357, 0.0102046, NaN, NaN, NaN, 0.0347922, "- N/A -   "
6.07, 233.0642, 0.01023233, NaN, NaN, NaN, 0.03601294, "- N/A -   "
6.09, 233.772, 0.0102657, NaN, NaN, NaN, 0.03601294, "- N/A -   "
6.11, 234.598, 0.010299, NaN, NaN, NaN, 0.03601294, "- N/A -   "
6.13, 235.3052, 0.0103323, NaN, NaN, NaN, 0.03601294, "- N/A -   "
6.15, 236.131, 0.0103684, NaN, NaN, NaN, 0.0347922, "- N/A -   "
6.17, 236.956, 0.0104017, NaN, NaN, NaN, 0.0347922, "- N/A -   "
6.19, 237.664, 0.010435, NaN, NaN, NaN, 0.0347922, "- N/A -   "
6.21, 238.372, 0.0104684, NaN, NaN, NaN, 0.0347922, "- N/A -   "
6.23, 239.197, 0.0105017, NaN, NaN, NaN, 0.0347922, "- N/A -   "
6.25, 239.787, 0.01053222, NaN, NaN, NaN, 0.0372337, "- N/A -   "
6.27, 240.613, 0.0105628, NaN, NaN, NaN, 0.0372337, "- N/A -   "
6.29, 241.203, 0.0105933, NaN, NaN, NaN, 0.0384545, "- N/A -   "
6.31, 242.028, 0.0106294, NaN, NaN, NaN, 0.0384545, "- N/A -   "
6.33, 242.853, 0.0106627, NaN, NaN, NaN, 0.0384545, "- N/A -   "
6.35, 243.56, 0.0106933, NaN, NaN, NaN, 0.0396753, "- N/A -   "
6.37, 244.15, 0.0107238, NaN, NaN, NaN, 0.0396753, "- N/A -   "
6.39, 244.857, 0.0107516, NaN, NaN, NaN, 0.04211683, "- N/A -   "
6.41, 245.563, 0.0107821, NaN, NaN, NaN, 0.0433376, "- N/A -   "
6.43, 246.388, 0.0108182, NaN, NaN, NaN, 0.04211683, "- N/A -   "
6.45, 247.331, 0.0108515, NaN, NaN, NaN, 0.04211683, "- N/A -   "
6.47, 248.038, 0.0108876, NaN, NaN, NaN, 0.04211683, "- N/A -   "
6.49, 248.863, 0.0109265, NaN, NaN, NaN, 0.0396753, "- N/A -   "
6.51, 249.805, 0.0109654, NaN, NaN, NaN, 0.03601294, "- N/A -   "
6.53, 250.748, 0.0110043, NaN, NaN, NaN, 0.0347922, "- N/A -   "
6.55, 251.5726, 0.0110404, NaN, NaN, NaN, 0.0323506, "- N/A -   "
6.57, 252.28, 0.0110737, NaN, NaN, NaN, 0.0323506, "- N/A -   "
6.59, 253.104, 0.0111098, NaN, NaN, NaN, 0.03112983, "- N/A -   "
6.61, 253.929, 0.0111403, NaN, NaN, NaN, 0.0323506, "- N/A -   "
6.63, 254.6361, 0.0111764, NaN, NaN, NaN, 0.0323506, "- N/A -   "
6.65, 255.343, 0.011207, NaN, NaN, NaN, 0.0335714, "- N/A -   "
6.67, 255.932, 0.0112375, NaN, NaN, NaN, 0.0347922, "- N/A -   "
6.69, 256.639, 0.0112681, NaN, NaN, NaN, 0.0347922, "- N/A -   "
6.71, 257.346, 0.0113014, NaN, NaN, NaN, 0.0347922, "- N/A -   "
6.73, 258.171, 0.0113375, NaN, NaN, NaN, 0.0335714, "- N/A -   "
6.75, 259.113, 0.0113736, NaN, NaN, NaN, 0.0323506, "- N/A -   "
6.77, 259.82, 0.0114097, NaN, NaN, NaN, 0.03112983, "- N/A -   "
6.79, 260.763, 0.0114458, NaN, NaN, NaN, 0.0299091, "- N/A -   "
6.81, 261.47, 0.0114819, NaN, NaN, NaN, 0.0286883, "- N/A -   "
6.83, 262.295, 0.0115124, NaN, NaN, NaN, 0.0299091, "- N/A -   "
6.85, 262.8839, 0.0115457, NaN, NaN, NaN, 0.03112983, "- N/A -   "
6.87, 263.591, 0.0115735, NaN, NaN, NaN, 0.0323506, "- N/A -   "
6.89, 264.298, 0.011604, NaN, NaN, NaN, 0.0335714, "- N/A -   "
6.91, 264.887, 0.0116346, NaN, NaN, NaN, 0.0347922, "- N/A -   "
6.93, 265.5939, 0.0116651, NaN, NaN, NaN, 0.0372337, "- N/A -   "
6.95, 266.065, 0.0116929, NaN, NaN, NaN, 0.0384545, "- N/A -   "
6.97, 266.7722, 0.0117234, NaN, NaN, NaN, 0.0396753, "- N/A -   "
6.99, 267.3613, 0.011754, NaN, NaN, NaN, 0.04089605, "- N/A -   "
7.01, 268.1861, 0.0117873, NaN, NaN, NaN, 0.04211683, "- N/A -   "
7.03, 268.7752, 0.0118151, NaN, NaN, NaN, 0.0433376, "- N/A -   "
7.05, 269.364, 0.0118456, NaN, NaN, NaN, 0.04577916, "- N/A -   "
7.07, 270.071, 0.0118762, NaN, NaN, NaN, 0.04577916, "- N/A -   "
7.09, 270.8961, 0.0119123, NaN, NaN, NaN, 0.0445584, "- N/A -   "
7.11, 271.839, 0.01195114, NaN, NaN, NaN, 0.04211683, "- N/A -   "
7.13, 272.546, 0.0119845, NaN, NaN, NaN, 0.04211683, "- N/A -   "
7.15, 273.253, 0.0120206, NaN, NaN, NaN, 0.04089605, "- N/A -   "
7.17, 274.0774, 0.0120594, NaN, NaN, NaN, 0.0396753, "- N/A -   "
7.19, 274.784, 0.0120955, NaN, NaN, NaN, 0.0384545, "- N/A -   "
7.21, 275.727, 0.0121316, NaN, NaN, NaN, 0.0372337, "- N/A -   "
7.23, 276.552, 0.0121677, NaN, NaN, NaN, 0.03601294, "- N/A -   "
7.25, 277.2587, 0.0122038, NaN, NaN, NaN, 0.0347922, "- N/A -   "
7.27, 277.966, 0.0122344, NaN, NaN, NaN, 0.0347922, "- N/A -   "
7.29, 278.6726, 0.01226769, NaN, NaN, NaN, 0.0347922, "- N/A -   "
7.31, 279.38, 0.0123038, NaN, NaN, NaN, 0.0335714, "- N/A -   "
7.33, 280.322, 0.0123427, NaN, NaN, NaN, 0.03112983, "- N/A -   "
7.35, 281.147, 0.01237876, NaN, NaN, NaN, 0.0299091, "- N/A -   "
[...]
32.98, 1328.06, 0.0550741, NaN, NaN, NaN, 0.0396753, "- N/A -   "
33.05, 1331.16, 0.0551879, NaN, NaN, NaN, 0.04211683, "- N/A -   "
33.12, 1334.62, 0.0553101, NaN, NaN, NaN, 0.0396753, "- N/A -   "
33.19, 1337.96, 0.05542952, NaN, NaN, NaN, 0.0372337, "- N/A -   "
33.26, 1341.3, 0.0555489, NaN, NaN, NaN, 0.03601294, "- N/A -   "
33.33, 1344.4, 0.0556655, NaN, NaN, NaN, 0.03601294, "- N/A -   "
33.4, 1347.74, 0.05578772, NaN, NaN, NaN, 0.0347922, "- N/A -   "
33.47, 1351.08, 0.05590712, NaN, NaN, NaN, 0.0335714, "- N/A -   "
33.54, 1354.3, 0.0560182, NaN, NaN, NaN, 0.0347922, "- N/A -   "
33.61, 1357.04, 0.0561265, NaN, NaN, NaN, 0.0396753, "- N/A -   "
33.68, 1360.14, 0.0562376, NaN, NaN, NaN, 0.04089605, "- N/A -   "
33.75, 1363.36, 0.0563514, NaN, NaN, NaN, 0.0433376, "- N/A -   "
33.82, 1367.06, 0.05648191, NaN, NaN, NaN, 0.0372337, "- N/A -   "
33.89, 1370.64, 0.0566069, NaN, NaN, NaN, 0.0323506, "- N/A -   "
33.96, 1373.74, 0.0567235, NaN, NaN, NaN, 0.0323506, "- N/A -   "
34.03, 1377.08, 0.05684289, NaN, NaN, NaN, 0.03112983, "- N/A -   "
34.1, 1380.296, 0.05696229, NaN, NaN, NaN, 0.0299091, "- N/A -   "
34.17, 1383.52, 0.0570761, NaN, NaN, NaN, 0.0323506, "- N/A -   "
34.24, 1386.14, 0.05717332, NaN, NaN, NaN, 0.0396753, "- N/A -   "
34.31, 1389.12, 0.0572788, NaN, NaN, NaN, 0.0445584, "- N/A -   "
34.38, 1392.34, 0.0573955, NaN, NaN, NaN, 0.0445584, "- N/A -   "
34.45, 1395.56, 0.05751486, NaN, NaN, NaN, 0.0445584, "- N/A -   "
34.52, 1399.26, 0.05764537, NaN, NaN, NaN, 0.0372337, "- N/A -   "
34.59, 1402.72, 0.0577675, NaN, NaN, NaN, 0.0347922, "- N/A -   "
34.66, 1406.05, 0.0578897, NaN, NaN, NaN, 0.0323506, "- N/A -   "
34.73, 1409.39, 0.05800912, NaN, NaN, NaN, 0.03112983, "- N/A -   "
34.8, 1412.49, 0.0581202, NaN, NaN, NaN, 0.0335714, "- N/A -   "
34.87, 1415.48, 0.05822849, NaN, NaN, NaN, 0.0372337, "- N/A -   "
34.94, 1418.1, 0.0583312, NaN, NaN, NaN, 0.0445584, "- N/A -   "
35.01, 1421.438, 0.05844785, NaN, NaN, NaN, 0.0433376, "- N/A -   "
35.08, 1424.66, 0.0585673, NaN, NaN, NaN, 0.04211683, "- N/A -   "
35.15, 1428.12, 0.05868943, NaN, NaN, NaN, 0.0396753, "- N/A -   "
35.22, 1432.05, 0.058831, NaN, NaN, NaN, 0.0286883, "- N/A -   "
35.29, 1435.39, 0.05895322, NaN, NaN, NaN, 0.0262467, "- N/A -   "
35.36, 1438.491, 0.05906429, NaN, NaN, NaN, 0.0299091, "- N/A -   "
35.43, 1441.59, 0.0591726, NaN, NaN, NaN, 0.0335714, "- N/A -   "
35.5, 1444.57, 0.0592864, NaN, NaN, NaN, 0.0347922, "- N/A -   "
35.57, 1447.67, 0.0593975, NaN, NaN, NaN, 0.0372337, "- N/A -   "
35.64, 1450.65, 0.05950857, NaN, NaN, NaN, 0.0396753, "- N/A -   "
35.71, 1453.76, 0.05961131, NaN, NaN, NaN, 0.04577916, "- N/A -   "
35.78, 1457.09, 0.0597335, NaN, NaN, NaN, 0.0445584, "- N/A -   "
35.85, 1460.79, 0.059864, NaN, NaN, NaN, 0.0384545, "- N/A -   "
35.92, 1464.25, 0.0599917, NaN, NaN, NaN, 0.0335714, "- N/A -   "
35.99, 1467.35, 0.06010557, NaN, NaN, NaN, 0.0347922, "- N/A -   "
36.06, 1470.33, 0.06021109, NaN, NaN, NaN, 0.0384545, "- N/A -   "
36.13, 1473.91, 0.0603388, NaN, NaN, NaN, 0.0335714, "- N/A -   "
36.2, 1477.13, 0.06045544, NaN, NaN, NaN, 0.0335714, "- N/A -   "
36.27, 1479.99, 0.0605582, NaN, NaN, NaN, 0.0396753, "- N/A -   "
36.34, 1482.972, 0.060672, NaN, NaN, NaN, 0.04089605, "- N/A -   "
36.41, 1486.43, 0.06079143, NaN, NaN, NaN, 0.04089605, "- N/A -   "
36.48, 1489.77, 0.06091083, NaN, NaN, NaN, 0.0384545, "- N/A -   "
36.55, 1493.11, 0.061033, NaN, NaN, NaN, 0.03601294, "- N/A -   "
36.62, 1496.45, 0.06115796, NaN, NaN, NaN, 0.0335714, "- N/A -   "
36.69, 1499.79, 0.06127458, NaN, NaN, NaN, 0.0323506, "- N/A -   "
36.76, 1503.01, 0.061394, NaN, NaN, NaN, 0.0323506, "- N/A -   "
36.83, 1506.11, 0.0615023, NaN, NaN, NaN, 0.0347922, "- N/A -   "
36.9, 1509.21, 0.0616189, NaN, NaN, NaN, 0.0347922, "- N/A -   "
36.97, 1512.43, 0.06173275, NaN, NaN, NaN, 0.03601294, "- N/A -   "
37.04, 1515.29, 0.0618383, NaN, NaN, NaN, 0.04089605, "- N/A -   "
37.11, 1518.27, 0.06194933, NaN, NaN, NaN, 0.0433376, "- N/A -   "
37.18, 1521.49, 0.06206318, NaN, NaN, NaN, 0.0445584, "- N/A -   "
37.25, 1524.95, 0.0621881, NaN, NaN, NaN, 0.04089605, "- N/A -   "
37.32, 1528.65, 0.0623214, NaN, NaN, NaN, 0.0347922, "- N/A -   "
37.39, 1531.75, 0.0624353, NaN, NaN, NaN, 0.0347922, "- N/A -   "
37.46, 1535.2, 0.06256022, NaN, NaN, NaN, 0.03112983, "- N/A -   "
37.53, 1538.54, 0.06267962, NaN, NaN, NaN, 0.0299091, "- N/A -   "
37.6, 1541.52, 0.06278791, NaN, NaN, NaN, 0.0335714, "- N/A -   "
37.67, 1544.03, 0.06288788, NaN, NaN, NaN, 0.04089605, "- N/A -   "
37.74, 1546.891, 0.06299062, NaN, NaN, NaN, 0.04699994, "- N/A -   "
37.81, 1550.23, 0.06310724, NaN, NaN, NaN, 0.04699994, "- N/A -   "
37.88, 1554.17, 0.06324608, NaN, NaN, NaN, 0.0372337, "- N/A -   "
37.95, 1557.62, 0.0633738, NaN, NaN, NaN, 0.0323506, "- N/A -   "
38.02, 1561.082, 0.063496, NaN, NaN, NaN, 0.03112983, "- N/A -   "
38.09, 1564.421, 0.06361539, NaN, NaN, NaN, 0.0286883, "- N/A -   "
38.16, 1567.64, 0.0637348, NaN, NaN, NaN, 0.0274675, "- N/A -   "
38.23, 1570.38, 0.06383753, NaN, NaN, NaN, 0.0335714, "- N/A -   "
38.3, 1573.13, 0.06393749, NaN, NaN, NaN, 0.04089605, "- N/A -   "
38.37, 1576.11, 0.06404301, NaN, NaN, NaN, 0.04577916, "- N/A -   "
38.44, 1579.45, 0.06416518, NaN, NaN, NaN, 0.0433376, "- N/A -   "
38.51, 1582.79, 0.0642846, NaN, NaN, NaN, 0.0433376, "- N/A -   "
38.58, 1586.125, 0.06440676, NaN, NaN, NaN, 0.04089605, "- N/A -   "
38.65, 1590.06, 0.0645428, NaN, NaN, NaN, 0.03112983, "- N/A -   "
38.72, 1593.52, 0.06467055, NaN, NaN, NaN, 0.0274675, "- N/A -   "
38.79, 1596.5, 0.06477606, NaN, NaN, NaN, 0.0323506, "- N/A -   "
38.86, 1599.36, 0.06487881, NaN, NaN, NaN, 0.0372337, "- N/A -   "
38.93, 1602.46, 0.06499543, NaN, NaN, NaN, 0.0384545, "- N/A -   "
39, 1605.8, 0.0651121, NaN, NaN, NaN, 0.0372337, "- N/A -   "
39.07, 1608.54, 0.0652148, NaN, NaN, NaN, 0.0433376, "- N/A -   "
39.14, 1611.64, 0.06532864, NaN, NaN, NaN, 0.04577916, "- N/A -   "
39.21, 1615.46, 0.0654619, NaN, NaN, NaN, 0.0384545, "- N/A -   "
39.28, 1619.28, 0.06559799, NaN, NaN, NaN, 0.0286883, "- N/A -   "
39.35, 1622.616, 0.06571461, NaN, NaN, NaN, 0.0286883, "- N/A -   "
39.42, 1625.36, 0.0658229, NaN, NaN, NaN, 0.0323506, "- N/A -   "
39.49, 1628.58, 0.06593953, NaN, NaN, NaN, 0.0323506, "- N/A -   "
39.56, 1632.04, 0.06605893, NaN, NaN, NaN, 0.03112983, "- N/A -   "
39.63, 1634.78, 0.06616166, NaN, NaN, NaN, 0.0372337, "- N/A -   "
39.7, 1637.64, 0.0662672, NaN, NaN, NaN, 0.04211683, "- N/A -   "
39.77, 1640.86, 0.06638381, NaN, NaN, NaN, 0.04211683, "- N/A -   "
39.84, 1644.08, 0.0665032, NaN, NaN, NaN, 0.0433376, "- N/A -   "
39.91, 1647.54, 0.06662816, NaN, NaN, NaN, 0.0396753, "- N/A -   "
39.98, 1650.76, 0.06674479, NaN, NaN, NaN, 0.0396753, "- N/A -   "
40.05, 1654.22, 0.066867, NaN, NaN, NaN, 0.0372337, "- N/A -   "
40.12, 1657.56, 0.06699192, NaN, NaN, NaN, 0.0335714, "- N/A -   "
40.19, 1660.66, 0.06710576, NaN, NaN, NaN, 0.0347922, "- N/A -   "
40.26, 1663.88, 0.06722239, NaN, NaN, NaN, 0.0347922, "- N/A -   "
40.33, 1667.22, 0.06734179, NaN, NaN, NaN, 0.0335714, "- N/A -   "
40.4, 1670.2, 0.0674473, NaN, NaN, NaN, 0.0372337, "- N/A -   "
40.47, 1673.06, 0.06755837, NaN, NaN, NaN, 0.04089605, "- N/A -   "
40.54, 1675.92, 0.0676611, NaN, NaN, NaN, 0.04577916, "- N/A -   "
40.61, 1679.14, 0.06778329, NaN, NaN, NaN, 0.0433376, "- N/A -   "
40.68, 1682.96, 0.06791658, NaN, NaN, NaN, 0.03601294, "- N/A -   "
40.75, 1686.42, 0.0680443, NaN, NaN, NaN, 0.03112983, "- N/A -   "
40.82, 1689.52, 0.06816093, NaN, NaN, NaN, 0.03112983, "- N/A -   "
40.89, 1692.97, 0.0682831, NaN, NaN, NaN, 0.0299091, "- N/A -   "
40.96, 1695.956, 0.068397, NaN, NaN, NaN, 0.03112983, "- N/A -   "
41.03, 1698.82, 0.06850247, NaN, NaN, NaN, 0.0347922, "- N/A -   "
41.1, 1701.32, 0.06859688, NaN, NaN, NaN, 0.0445584, "- N/A -   "
41.17, 1704.3, 0.06870517, NaN, NaN, NaN, 0.0482207, "- N/A -   "
41.24, 1707.64, 0.0688329, NaN, NaN, NaN, 0.0433376, "- N/A -   "
41.31, 1711.22, 0.06896341, NaN, NaN, NaN, 0.0384545, "- N/A -   "
41.38, 1714.44, 0.06908003, NaN, NaN, NaN, 0.0372337, "- N/A -   "
41.45, 1717.78, 0.069205, NaN, NaN, NaN, 0.0335714, "- N/A -   "
41.52, 1721.24, 0.06933272, NaN, NaN, NaN, 0.0286883, "- N/A -   "
41.59, 1724.338, 0.06944934, NaN, NaN, NaN, 0.0299091, "- N/A -   "
41.66, 1727.2, 0.06955486, NaN, NaN, NaN, 0.0347922, "- N/A -   "
41.73, 1729.7, 0.06965482, NaN, NaN, NaN, 0.04089605, "- N/A -   "
41.8, 1732.69, 0.06976867, NaN, NaN, NaN, 0.0433376, "- N/A -   "
41.87, 1735.91, 0.06988529, NaN, NaN, NaN, 0.0433376, "- N/A -   "
41.94, 1739.13, 0.0700075, NaN, NaN, NaN, 0.0396753, "- N/A -   "
41.978, 1740.914, 0.07007133, NaN, NaN, NaN, 0.0396753, "- N/A -   "