File: 2_Tensile_Data/Hamel_ForceTest_Bolt4_Test3.csv
Time, Load (lb), Position (in), AxialStrain (in), TransverseStrain (in), Auxiliary (), Control Out (V), Stress (psi)
0.0, 1.29742, 0.0, NaN, NaN, NaN, 0.08850638, "- N/A -   "
0.01, 1.41537, 3.054427E-5, NaN, NaN, NaN, 0.08240249, "- N/A -   "
0.02, 1.76921, 5.83118e-05, NaN, NaN, NaN, 0.07751938, "- N/A -   "
0.03, 2.005107, 8.607931E-5, NaN, NaN, NaN, 0.07385705, "- N/A -   "
0.04, 2.241, 0.00011107, NaN, NaN, NaN, 0.0689739, "- N/A -   "
0.05, 2.59484, 0.000136061, NaN, NaN, NaN, 0.0653116, "- N/A -   "
0.06, 2.83074, 1.610516E-4, NaN, NaN, NaN, 0.06164927, "- N/A -   "
0.07, 3.06663, 0.000183266, NaN, NaN, NaN, 0.0592077, "- N/A -   "
0.08, 3.30253, 0.00020548, NaN, NaN, NaN, 0.05676616, "- N/A -   "
0.09, 3.53842, 0.000227694, NaN, NaN, NaN, 0.0543246, "- N/A -   "
0.1, 3.89227, 0.000249908, NaN, NaN, NaN, 0.05188305, "- N/A -   "
0.11, 4.12816, 2.721217E-4, NaN, NaN, NaN, 0.0494415, "- N/A -   "
0.12, 4.36406, 0.000297112, NaN, NaN, NaN, 0.04699994, "- N/A -   "
0.13, 4.717899, 0.000319326, NaN, NaN, NaN, 0.0433376, "- N/A -   "
0.14, 5.071741, 0.00034154, NaN, NaN, NaN, 0.04089605, "- N/A -   "
0.15, 5.18969, 3.637545E-4, NaN, NaN, NaN, 0.0384545, "- N/A -   "
0.16, 5.425584, 3.859685E-4, NaN, NaN, NaN, 0.03601294, "- N/A -   "
0.17, 5.779426, 0.000405406, NaN, NaN, NaN, 0.0347922, "- N/A -   "
0.18, 5.897373, 0.000424843, NaN, NaN, NaN, 0.0335714, "- N/A -   "
0.19, 6.01532, 0.000441504, NaN, NaN, NaN, 0.0335714, "- N/A -   "
0.2, 6.251216, 4.609408E-4, NaN, NaN, NaN, 0.0323506, "- N/A -   "
0.21, 6.487111, 4.776013E-4, NaN, NaN, NaN, 0.0323506, "- N/A -   "
0.22, 6.723006, 4.970386E-4, NaN, NaN, NaN, 0.0323506, "- N/A -   "
0.23, 6.9589, 5.136991E-4, NaN, NaN, NaN, 0.03112983, "- N/A -   "
0.24, 7.1948, 0.00053036, NaN, NaN, NaN, 0.03112983, "- N/A -   "
0.25, 7.312743, 5.470201E-4, NaN, NaN, NaN, 0.03112983, "- N/A -   "
0.26, 7.548638, 5.636806E-4, NaN, NaN, NaN, 0.03112983, "- N/A -   "
0.27, 7.90248, 0.000577564, NaN, NaN, NaN, 0.0323506, "- N/A -   "
0.28, 7.90248, 5.942249E-4, NaN, NaN, NaN, 0.0323506, "- N/A -   "
0.29, 8.138375, 0.000608109, NaN, NaN, NaN, 0.0335714, "- N/A -   "
0.3, 8.256323, 6.219924E-4, NaN, NaN, NaN, 0.0347922, "- N/A -   "
0.31, 8.37427, 0.000638653, NaN, NaN, NaN, 0.0347922, "- N/A -   "
0.32, 8.728113, 6.525367E-4, NaN, NaN, NaN, 0.03601294, "- N/A -   "
0.33, 8.964007, 0.00066642, NaN, NaN, NaN, 0.0372337, "- N/A -   "
0.34, 9.081955, 6.803042E-4, NaN, NaN, NaN, 0.0384545, "- N/A -   "
0.35, 9.199903, 6.969647E-4, NaN, NaN, NaN, 0.0384545, "- N/A -   "
0.36, 9.435798, 7.108485E-4, NaN, NaN, NaN, 0.0396753, "- N/A -   "
0.37, 9.78964, 0.000724732, NaN, NaN, NaN, 0.04089605, "- N/A -   "
0.38, 9.78964, 7.38616E-4, NaN, NaN, NaN, 0.04211683, "- N/A -   "
0.39, 10.1435, 0.0007525, NaN, NaN, NaN, 0.0433376, "- N/A -   "
0.4, 10.26143, 7.663835E-4, NaN, NaN, NaN, 0.0445584, "- N/A -   "
0.41, 10.4973, 0.000783044, NaN, NaN, NaN, 0.0445584, "- N/A -   "
0.42, 10.6153, 7.997045E-4, NaN, NaN, NaN, 0.04577916, "- N/A -   "
0.43, 10.9691, 0.000813588, NaN, NaN, NaN, 0.04577916, "- N/A -   "
0.44, 11.205, 0.000833026, NaN, NaN, NaN, 0.04577916, "- N/A -   "
0.45, 11.4409, 0.000849686, NaN, NaN, NaN, 0.0445584, "- N/A -   "
0.46, 11.6768, 8.663466E-4, NaN, NaN, NaN, 0.0445584, "- N/A -   "
0.47, 11.9127, 8.830071E-4, NaN, NaN, NaN, 0.0445584, "- N/A -   "
0.48, 12.14859, 0.000899668, NaN, NaN, NaN, 0.0445584, "- N/A -   "
0.49, 12.3845, 9.163281E-4, NaN, NaN, NaN, 0.0445584, "- N/A -   "
0.5, 12.6204, 9.329886E-4, NaN, NaN, NaN, 0.0445584, "- N/A -   "
0.51, 12.8563, 0.000949649, NaN, NaN, NaN, 0.0445584, "- N/A -   "
0.52, 13.09217, 9.663096E-4, NaN, NaN, NaN, 0.0445584, "- N/A -   "
0.53, 13.3281, 9.829701E-4, NaN, NaN, NaN, 0.0445584, "- N/A -   "
0.54, 13.446, 9.996307E-4, NaN, NaN, NaN, 0.0445584, "- N/A -   "
0.55, 13.7999, 0.00101629, NaN, NaN, NaN, 0.0445584, "- N/A -   "
0.56, 13.9178, 0.00103017, NaN, NaN, NaN, 0.04577916, "- N/A -   "
0.57, 14.1537, 0.00104684, NaN, NaN, NaN, 0.04699994, "- N/A -   "
0.58, 14.5075, 0.001063496, NaN, NaN, NaN, 0.04577916, "- N/A -   "
0.59, 14.6255, 0.00108016, NaN, NaN, NaN, 0.04577916, "- N/A -   "
0.6, 14.9793, 0.001096817, NaN, NaN, NaN, 0.04577916, "- N/A -   "
0.61, 15.3332, 0.00111625, NaN, NaN, NaN, 0.0445584, "- N/A -   "
0.62, 15.5691, 0.00113569, NaN, NaN, NaN, 0.0433376, "- N/A -   "
0.63, 15.805, 0.00115513, NaN, NaN, NaN, 0.0433376, "- N/A -   "
0.64, 16.0409, 0.00117179, NaN, NaN, NaN, 0.04211683, "- N/A -   "
0.65, 16.27675, 0.00118845, NaN, NaN, NaN, 0.04211683, "- N/A -   "
0.66, 16.6306, 0.00121066, NaN, NaN, NaN, 0.0396753, "- N/A -   "
0.67, 16.86649, 0.0012301, NaN, NaN, NaN, 0.0384545, "- N/A -   "
0.68, 17.2203, 0.00125232, NaN, NaN, NaN, 0.03601294, "- N/A -   "
0.69, 17.5742, 0.00127175, NaN, NaN, NaN, 0.0347922, "- N/A -   "
0.7, 17.8101, 0.00129397, NaN, NaN, NaN, 0.0335714, "- N/A -   "
0.71, 18.16391, 0.0013134, NaN, NaN, NaN, 0.03112983, "- N/A -   "
0.72, 18.3998, 0.00133006, NaN, NaN, NaN, 0.03112983, "- N/A -   "
0.73, 18.7536, 0.0013495, NaN, NaN, NaN, 0.0299091, "- N/A -   "
0.74, 18.9895, 0.00136616, NaN, NaN, NaN, 0.0299091, "- N/A -   "
0.75, 19.1075, 0.0013856, NaN, NaN, NaN, 0.0286883, "- N/A -   "
0.76, 19.4613, 0.00140226, NaN, NaN, NaN, 0.0286883, "- N/A -   "
0.77, 19.57928, 0.00141892, NaN, NaN, NaN, 0.0299091, "- N/A -   "
0.78, 19.9331, 0.00143558, NaN, NaN, NaN, 0.0286883, "- N/A -   "
0.79, 20.169, 0.00145224, NaN, NaN, NaN, 0.0299091, "- N/A -   "
0.8, 20.52286, 0.0014689, NaN, NaN, NaN, 0.0286883, "- N/A -   "
0.81, 20.6408, 0.00148556, NaN, NaN, NaN, 0.0299091, "- N/A -   "
0.82, 20.8767, 0.00150222, NaN, NaN, NaN, 0.0299091, "- N/A -   "
0.83, 21.1126, 0.00151611, NaN, NaN, NaN, 0.0299091, "- N/A -   "
0.84, 21.3485, 0.00152999, NaN, NaN, NaN, 0.03112983, "- N/A -   "
0.85, 21.46644, 0.00154665, NaN, NaN, NaN, 0.03112983, "- N/A -   "
0.86, 21.8203, 0.00156331, NaN, NaN, NaN, 0.03112983, "- N/A -   "
0.87, 22.0562, 0.001577195, NaN, NaN, NaN, 0.0323506, "- N/A -   "
0.88, 22.29207, 0.00159108, NaN, NaN, NaN, 0.0335714, "- N/A -   "
0.89, 22.528, 0.00160774, NaN, NaN, NaN, 0.0347922, "- N/A -   "
0.9, 22.7639, 0.001621623, NaN, NaN, NaN, 0.0347922, "- N/A -   "
0.91, 22.9998, 0.00163828, NaN, NaN, NaN, 0.0347922, "- N/A -   "
0.92, 23.2357, 0.001654944, NaN, NaN, NaN, 0.0347922, "- N/A -   "
0.93, 23.4715, 0.00166883, NaN, NaN, NaN, 0.03601294, "- N/A -   "
0.94, 23.82539, 0.00168549, NaN, NaN, NaN, 0.03601294, "- N/A -   "
0.95, 24.0613, 0.00170215, NaN, NaN, NaN, 0.03601294, "- N/A -   "
0.96, 24.29718, 0.00171881, NaN, NaN, NaN, 0.03601294, "- N/A -   "
0.97, 24.5331, 0.00173547, NaN, NaN, NaN, 0.03601294, "- N/A -   "
0.98, 24.769, 0.00175491, NaN, NaN, NaN, 0.0347922, "- N/A -   "
0.99, 25.1228, 0.00177434, NaN, NaN, NaN, 0.0335714, "- N/A -   "
1, 25.3587, 0.001791, NaN, NaN, NaN, 0.0335714, "- N/A -   "
1.01, 25.5946, 0.00180767, NaN, NaN, NaN, 0.0335714, "- N/A -   "
1.05, 26.5382, 0.00186598, NaN, NaN, NaN, 0.0372337, "- N/A -   "
1.09, 27.3638, 0.00192151, NaN, NaN, NaN, 0.04211683, "- N/A -   "
1.13, 28.1894, 0.00197982, NaN, NaN, NaN, 0.04577916, "- N/A -   "
1.17, 29.251, 0.002046466, NaN, NaN, NaN, 0.04577916, "- N/A -   "
1.21, 30.3125, 0.00211033, NaN, NaN, NaN, 0.04699994, "- N/A -   "
1.25, 31.492, 0.0021853, NaN, NaN, NaN, 0.0433376, "- N/A -   "
1.29, 32.7894, 0.00226861, NaN, NaN, NaN, 0.03601294, "- N/A -   "
1.33, 33.9689, 0.00234358, NaN, NaN, NaN, 0.0323506, "- N/A -   "
1.37, 35.1483, 0.002418551, NaN, NaN, NaN, 0.0286883, "- N/A -   "
1.41, 36.0919, 0.002482416, NaN, NaN, NaN, 0.0299091, "- N/A -   "
1.45, 37.0355, 0.0025435, NaN, NaN, NaN, 0.0323506, "- N/A -   "
1.49, 37.9791, 0.00260182, NaN, NaN, NaN, 0.03601294, "- N/A -   "
1.53, 39.04061, 0.00266846, NaN, NaN, NaN, 0.03601294, "- N/A -   "
1.57, 40.22009, 0.00273788, NaN, NaN, NaN, 0.03601294, "- N/A -   "
1.61, 41.39956, 0.002807296, NaN, NaN, NaN, 0.0335714, "- N/A -   "
1.65, 42.4611, 0.00287394, NaN, NaN, NaN, 0.0335714, "- N/A -   "
1.69, 43.2867, 0.00293503, NaN, NaN, NaN, 0.03601294, "- N/A -   "
1.73, 44.34825, 0.00299612, NaN, NaN, NaN, 0.0384545, "- N/A -   "
1.77, 45.29183, 0.003057204, NaN, NaN, NaN, 0.04089605, "- N/A -   "
1.81, 46.3534, 0.003121069, NaN, NaN, NaN, 0.04211683, "- N/A -   "
1.85, 47.4149, 0.003190488, NaN, NaN, NaN, 0.04089605, "- N/A -   "
1.89, 48.59436, 0.00325713, NaN, NaN, NaN, 0.04089605, "- N/A -   "
1.93, 49.6559, 0.003323772, NaN, NaN, NaN, 0.04089605, "- N/A -   "
1.97, 50.83536, 0.00339597, NaN, NaN, NaN, 0.0384545, "- N/A -   "
2.01, 52.1328, 0.00346539, NaN, NaN, NaN, 0.0372337, "- N/A -   "
2.05, 53.19431, 0.00353481, NaN, NaN, NaN, 0.03601294, "- N/A -   "
2.09, 54.2558, 0.003604224, NaN, NaN, NaN, 0.0347922, "- N/A -   "
2.13, 55.55326, 0.00367642, NaN, NaN, NaN, 0.0335714, "- N/A -   "
2.17, 56.85068, 0.003748615, NaN, NaN, NaN, 0.0299091, "- N/A -   "
2.21, 57.79426, 0.0038097, NaN, NaN, NaN, 0.0323506, "- N/A -   "
2.25, 58.8558, 0.003873569, NaN, NaN, NaN, 0.0335714, "- N/A -   "
2.29, 59.9173, 0.003937434, NaN, NaN, NaN, 0.0347922, "- N/A -   "
2.33, 61.09679, 0.004004076, NaN, NaN, NaN, 0.0347922, "- N/A -   "
2.37, 62.1583, 0.004076272, NaN, NaN, NaN, 0.0335714, "- N/A -   "
2.41, 63.45574, 0.00414291, NaN, NaN, NaN, 0.0323506, "- N/A -   "
2.45, 64.3993, 0.00420123, NaN, NaN, NaN, 0.0372337, "- N/A -   "
2.49, 65.4608, 0.00425954, NaN, NaN, NaN, 0.0396753, "- N/A -   "
2.53, 66.52237, 0.004323403, NaN, NaN, NaN, 0.04089605, "- N/A -   "
2.57, 67.70185, 0.00439004, NaN, NaN, NaN, 0.04089605, "- N/A -   "
2.61, 68.6454, 0.00445113, NaN, NaN, NaN, 0.0433376, "- N/A -   "
2.65, 70.0608, 0.00452611, NaN, NaN, NaN, 0.04089605, "- N/A -   "
2.69, 71.4762, 0.004601078, NaN, NaN, NaN, 0.03601294, "- N/A -   "
2.73, 72.89154, 0.00467605, NaN, NaN, NaN, 0.0323506, "- N/A -   "
2.77, 73.83511, 0.004742692, NaN, NaN, NaN, 0.0323506, "- N/A -   "
2.81, 75.0146, 0.004812111, NaN, NaN, NaN, 0.0323506, "- N/A -   "
2.85, 76.07612, 0.0048732, NaN, NaN, NaN, 0.0347922, "- N/A -   "
2.89, 77.25559, 0.004939841, NaN, NaN, NaN, 0.0347922, "- N/A -   "
2.93, 78.55301, 0.005012037, NaN, NaN, NaN, 0.03112983, "- N/A -   "
2.97, 79.85043, 0.005081456, NaN, NaN, NaN, 0.0299091, "- N/A -   "
3.01, 81.0299, 0.0051481, NaN, NaN, NaN, 0.0299091, "- N/A -   "
3.05, 82.20939, 0.00521196, NaN, NaN, NaN, 0.03112983, "- N/A -   "
3.09, 83.15297, 0.00527028, NaN, NaN, NaN, 0.0347922, "- N/A -   "
3.13, 84.21449, 0.005328587, NaN, NaN, NaN, 0.0384545, "- N/A -   "
3.17, 85.15807, 0.0053869, NaN, NaN, NaN, 0.0433376, "- N/A -   "
3.21, 86.33755, 0.00544799, NaN, NaN, NaN, 0.0445584, "- N/A -   "
3.25, 87.51702, 0.00551185, NaN, NaN, NaN, 0.04577916, "- N/A -   "
3.29, 88.6965, 0.00558127, NaN, NaN, NaN, 0.04577916, "- N/A -   "
3.33, 90.22981, 0.005656244, NaN, NaN, NaN, 0.04089605, "- N/A -   "
3.37, 91.52724, 0.00573122, NaN, NaN, NaN, 0.0372337, "- N/A -   "
3.41, 92.82466, 0.00580341, NaN, NaN, NaN, 0.0347922, "- N/A -   "
3.45, 94.1221, 0.005875607, NaN, NaN, NaN, 0.0323506, "- N/A -   "
3.49, 95.41951, 0.00594225, NaN, NaN, NaN, 0.0335714, "- N/A -   "
3.53, 96.71693, 0.006017221, NaN, NaN, NaN, 0.0299091, "- N/A -   "
3.57, 98.01435, 0.00608664, NaN, NaN, NaN, 0.0299091, "- N/A -   "
3.61, 99.3118, 0.00615328, NaN, NaN, NaN, 0.0286883, "- N/A -   "
3.65, 100.3733, 0.006217147, NaN, NaN, NaN, 0.0299091, "- N/A -   "
3.69, 101.317, 0.006272682, NaN, NaN, NaN, 0.0347922, "- N/A -   "
3.73, 102.496, 0.006333771, NaN, NaN, NaN, 0.0372337, "- N/A -   "
3.77, 103.558, 0.006397636, NaN, NaN, NaN, 0.0384545, "- N/A -   "
3.81, 104.737, 0.006458725, NaN, NaN, NaN, 0.04089605, "- N/A -   "
3.85, 105.799, 0.006519813, NaN, NaN, NaN, 0.0433376, "- N/A -   "
3.89, 106.978, 0.006583679, NaN, NaN, NaN, 0.0445584, "- N/A -   "
3.93, 108.04, 0.006650321, NaN, NaN, NaN, 0.0445584, "- N/A -   "
3.97, 109.3373, 0.006719739, NaN, NaN, NaN, 0.0433376, "- N/A -   "
4.01, 110.635, 0.006789158, NaN, NaN, NaN, 0.04211683, "- N/A -   "
4.05, 112.0501, 0.00685858, NaN, NaN, NaN, 0.04089605, "- N/A -   "
4.09, 113.348, 0.00693355, NaN, NaN, NaN, 0.0372337, "- N/A -   "
4.13, 114.881, 0.00701408, NaN, NaN, NaN, 0.03112983, "- N/A -   "
4.17, 116.06, 0.007083494, NaN, NaN, NaN, 0.0299091, "- N/A -   "
4.21, 117.24, 0.00715014, NaN, NaN, NaN, 0.0299091, "- N/A -   "
4.25, 118.183, 0.007214, NaN, NaN, NaN, 0.03112983, "- N/A -   "
4.29, 119.363, 0.00727509, NaN, NaN, NaN, 0.0335714, "- N/A -   "
4.33, 120.424, 0.007341732, NaN, NaN, NaN, 0.0335714, "- N/A -   "
4.37, 121.604, 0.0074056, NaN, NaN, NaN, 0.0347922, "- N/A -   "
4.41, 122.783, 0.00746946, NaN, NaN, NaN, 0.03601294, "- N/A -   "
4.45, 123.963, 0.007536105, NaN, NaN, NaN, 0.03601294, "- N/A -   "
4.49, 125.024, 0.007594417, NaN, NaN, NaN, 0.0396753, "- N/A -   "
4.53, 125.9679, 0.007655505, NaN, NaN, NaN, 0.04211683, "- N/A -   "
4.57, 127.147, 0.00771937, NaN, NaN, NaN, 0.0433376, "- N/A -   "
4.61, 128.209, 0.007783236, NaN, NaN, NaN, 0.04577916, "- N/A -   "
4.65, 129.506, 0.007852654, NaN, NaN, NaN, 0.0433376, "- N/A -   "
4.69, 130.922, 0.007930404, NaN, NaN, NaN, 0.0396753, "- N/A -   "
4.73, 132.219, 0.008002599, NaN, NaN, NaN, 0.0372337, "- N/A -   "
4.77, 133.634, 0.008074794, NaN, NaN, NaN, 0.0335714, "- N/A -   "
4.81, 134.814, 0.00814699, NaN, NaN, NaN, 0.03112983, "- N/A -   "
4.85, 135.993, 0.008210856, NaN, NaN, NaN, 0.0323506, "- N/A -   "
4.89, 137.055, 0.00827472, NaN, NaN, NaN, 0.0335714, "- N/A -   "
4.93, 138.116, 0.008341363, NaN, NaN, NaN, 0.0335714, "- N/A -   "
4.97, 139.414, 0.008410782, NaN, NaN, NaN, 0.0323506, "- N/A -   "
5.01, 140.475, 0.008477423, NaN, NaN, NaN, 0.0323506, "- N/A -   "
5.05, 141.6549, 0.008541289, NaN, NaN, NaN, 0.0335714, "- N/A -   "
5.09, 142.5985, 0.008602377, NaN, NaN, NaN, 0.03601294, "- N/A -   "
5.13, 143.778, 0.00866624, NaN, NaN, NaN, 0.0372337, "- N/A -   "
5.17, 144.8395, 0.008727332, NaN, NaN, NaN, 0.0396753, "- N/A -   "
5.21, 145.901, 0.008791196, NaN, NaN, NaN, 0.04089605, "- N/A -   "
5.25, 147.0805, 0.008857839, NaN, NaN, NaN, 0.04089605, "- N/A -   "
5.29, 148.142, 0.008921703, NaN, NaN, NaN, 0.04211683, "- N/A -   "
5.33, 149.3215, 0.008991122, NaN, NaN, NaN, 0.04089605, "- N/A -   "
5.37, 150.619, 0.009060541, NaN, NaN, NaN, 0.0396753, "- N/A -   "
5.41, 151.798, 0.009132737, NaN, NaN, NaN, 0.0372337, "- N/A -   "
5.45, 152.978, 0.009207709, NaN, NaN, NaN, 0.0335714, "- N/A -   "
5.49, 154.0394, 0.009271575, NaN, NaN, NaN, 0.0347922, "- N/A -   "
5.53, 154.983, 0.00933544, NaN, NaN, NaN, 0.03601294, "- N/A -   "
5.57, 156.2804, 0.009407635, NaN, NaN, NaN, 0.0335714, "- N/A -   "
5.61, 157.342, 0.009477055, NaN, NaN, NaN, 0.0323506, "- N/A -   "
5.65, 158.521, 0.009543696, NaN, NaN, NaN, 0.0323506, "- N/A -   "
5.69, 159.701, 0.009613114, NaN, NaN, NaN, 0.03112983, "- N/A -   "
5.73, 160.644, 0.00967698, NaN, NaN, NaN, 0.0323506, "- N/A -   "
5.77, 161.706, 0.009738068, NaN, NaN, NaN, 0.0347922, "- N/A -   "
5.81, 162.768, 0.009810264, NaN, NaN, NaN, 0.0335714, "- N/A -   "
5.85, 163.829, 0.00987413, NaN, NaN, NaN, 0.0335714, "- N/A -   "
5.89, 164.655, 0.009929665, NaN, NaN, NaN, 0.0384545, "- N/A -   "
5.93, 165.598, 0.009993529, NaN, NaN, NaN, 0.0396753, "- N/A -   "
5.97, 166.778, 0.0100574, NaN, NaN, NaN, 0.04089605, "- N/A -   "
6.01, 167.603, 0.0101157, NaN, NaN, NaN, 0.0445584, "- N/A -   "
6.05, 168.783, 0.0101851, NaN, NaN, NaN, 0.0433376, "- N/A -   "
6.09, 169.962, 0.0102545, NaN, NaN, NaN, 0.04211683, "- N/A -   "
6.13, 171.378, 0.01033507, NaN, NaN, NaN, 0.03601294, "- N/A -   "
6.17, 172.557, 0.01041, NaN, NaN, NaN, 0.0323506, "- N/A -   "
6.19, 173.029, 0.0104434, NaN, NaN, NaN, 0.0335714, "- N/A -   "
6.2, 173.265, 0.01046, NaN, NaN, NaN, 0.0323506, "- N/A -   "
6.21, 173.619, 0.0104767, NaN, NaN, NaN, 0.0323506, "- N/A -   "
6.22, 173.973, 0.0104933, NaN, NaN, NaN, 0.0323506, "- N/A -   "
6.23, 174.09, 0.01051, NaN, NaN, NaN, 0.0323506, "- N/A -   "
6.24, 174.4443, 0.0105267, NaN, NaN, NaN, 0.0323506, "- N/A -   "
6.26, 174.9161, 0.01056, NaN, NaN, NaN, 0.0323506, "- N/A -   "
6.28, 175.388, 0.0105933, NaN, NaN, NaN, 0.0335714, "- N/A -   "
6.3, 175.978, 0.0106266, NaN, NaN, NaN, 0.0335714, "- N/A -   "
6.32, 176.567, 0.0106627, NaN, NaN, NaN, 0.03112983, "- N/A -   "
6.34, 177.1571, 0.0106988, NaN, NaN, NaN, 0.0299091, "- N/A -   "
6.36, 177.747, 0.0107349, NaN, NaN, NaN, 0.0299091, "- N/A -   "
6.38, 178.337, 0.01077102, NaN, NaN, NaN, 0.0274675, "- N/A -   "
6.4, 178.926, 0.0108043, NaN, NaN, NaN, 0.0274675, "- N/A -   "
6.42, 179.28, 0.0108377, NaN, NaN, NaN, 0.0274675, "- N/A -   "
6.44, 179.87, 0.0108654, NaN, NaN, NaN, 0.0299091, "- N/A -   "
6.46, 180.224, 0.010896, NaN, NaN, NaN, 0.03112983, "- N/A -   "
6.48, 180.696, 0.0109265, NaN, NaN, NaN, 0.0323506, "- N/A -   "
6.5, 181.285, 0.0109543, NaN, NaN, NaN, 0.0347922, "- N/A -   "
6.52, 181.639, 0.0109848, NaN, NaN, NaN, 0.03601294, "- N/A -   "
6.54, 181.993, 0.0110126, NaN, NaN, NaN, 0.0384545, "- N/A -   "
6.56, 182.465, 0.0110404, NaN, NaN, NaN, 0.04089605, "- N/A -   "
6.58, 182.937, 0.0110709, NaN, NaN, NaN, 0.0433376, "- N/A -   "
6.6, 183.526, 0.0111015, NaN, NaN, NaN, 0.0433376, "- N/A -   "
6.62, 183.8801, 0.011132, NaN, NaN, NaN, 0.0445584, "- N/A -   "
6.64, 184.3519, 0.0111625, NaN, NaN, NaN, 0.04699994, "- N/A -   "
6.66, 184.942, 0.0111903, NaN, NaN, NaN, 0.0482207, "- N/A -   "
[...]
20.82, 695.889, 0.0348149, NaN, NaN, NaN, 0.0372337, "- N/A -   "
20.9, 698.7278, 0.0349343, NaN, NaN, NaN, 0.0433376, "- N/A -   "
20.98, 702.2762, 0.0350676, NaN, NaN, NaN, 0.0433376, "- N/A -   "
21.06, 705.588, 0.0352009, NaN, NaN, NaN, 0.0433376, "- N/A -   "
21.14, 709.6096, 0.03535083, NaN, NaN, NaN, 0.03601294, "- N/A -   "
21.22, 713.395, 0.0354952, NaN, NaN, NaN, 0.03112983, "- N/A -   "
21.3, 716.5882, 0.0356257, NaN, NaN, NaN, 0.0335714, "- N/A -   "
21.38, 719.9001, 0.03575068, NaN, NaN, NaN, 0.03601294, "- N/A -   "
21.46, 723.0936, 0.03587841, NaN, NaN, NaN, 0.0384545, "- N/A -   "
21.54, 726.5238, 0.0360117, NaN, NaN, NaN, 0.0396753, "- N/A -   "
21.62, 729.7174, 0.03613665, NaN, NaN, NaN, 0.0433376, "- N/A -   "
21.7, 733.1475, 0.0362699, NaN, NaN, NaN, 0.0433376, "- N/A -   "
21.78, 737.169, 0.0364227, NaN, NaN, NaN, 0.0347922, "- N/A -   "
21.86, 741.0723, 0.03656982, NaN, NaN, NaN, 0.0286883, "- N/A -   "
21.94, 744.148, 0.0366948, NaN, NaN, NaN, 0.0323506, "- N/A -   "
22.02, 747.341, 0.03681973, NaN, NaN, NaN, 0.03601294, "- N/A -   "
22.1, 751.008, 0.0369613, NaN, NaN, NaN, 0.0335714, "- N/A -   "
22.18, 754.2015, 0.0370863, NaN, NaN, NaN, 0.03601294, "- N/A -   "
22.26, 757.1585, 0.0372057, NaN, NaN, NaN, 0.04211683, "- N/A -   "
22.34, 760.707, 0.0373445, NaN, NaN, NaN, 0.0396753, "- N/A -   "
22.42, 764.374, 0.0374778, NaN, NaN, NaN, 0.0396753, "- N/A -   "
22.5, 767.804, 0.03761388, NaN, NaN, NaN, 0.0384545, "- N/A -   "
22.58, 771.352, 0.0377527, NaN, NaN, NaN, 0.03601294, "- N/A -   "
22.66, 774.901, 0.03788878, NaN, NaN, NaN, 0.0347922, "- N/A -   "
22.74, 778.3308, 0.0380221, NaN, NaN, NaN, 0.0347922, "- N/A -   "
22.82, 781.5244, 0.0381498, NaN, NaN, NaN, 0.0372337, "- N/A -   "
22.9, 785.0728, 0.0382831, NaN, NaN, NaN, 0.0372337, "- N/A -   "
22.98, 788.266, 0.03841081, NaN, NaN, NaN, 0.0396753, "- N/A -   "
23.06, 791.46, 0.03853854, NaN, NaN, NaN, 0.04211683, "- N/A -   "
23.14, 795.1267, 0.03867738, NaN, NaN, NaN, 0.0396753, "- N/A -   "
23.22, 799.0299, 0.0388301, NaN, NaN, NaN, 0.0323506, "- N/A -   "
23.3, 802.578, 0.0389634, NaN, NaN, NaN, 0.03112983, "- N/A -   "
23.38, 805.772, 0.0390911, NaN, NaN, NaN, 0.0335714, "- N/A -   "
23.46, 809.557, 0.0392383, NaN, NaN, NaN, 0.0274675, "- N/A -   "
23.54, 812.9871, 0.03936601, NaN, NaN, NaN, 0.0299091, "- N/A -   "
23.62, 815.5893, 0.0394743, NaN, NaN, NaN, 0.04211683, "- N/A -   "
23.7, 818.5463, 0.0395937, NaN, NaN, NaN, 0.0482207, "- N/A -   "
23.78, 822.213, 0.0397325, NaN, NaN, NaN, 0.0445584, "- N/A -   "
23.86, 826.1163, 0.0398797, NaN, NaN, NaN, 0.0384545, "- N/A -   "
23.94, 829.901, 0.0400241, NaN, NaN, NaN, 0.0335714, "- N/A -   "
24.02, 833.6863, 0.0401685, NaN, NaN, NaN, 0.0286883, "- N/A -   "
24.1, 836.9981, 0.040299, NaN, NaN, NaN, 0.03112983, "- N/A -   "
24.18, 840.073, 0.0404184, NaN, NaN, NaN, 0.03601294, "- N/A -   "
24.26, 843.0304, 0.0405378, NaN, NaN, NaN, 0.04211683, "- N/A -   "
24.34, 846.342, 0.0406655, NaN, NaN, NaN, 0.0445584, "- N/A -   "
24.42, 850.127, 0.0408071, NaN, NaN, NaN, 0.04089605, "- N/A -   "
24.5, 853.794, 0.04094876, NaN, NaN, NaN, 0.0384545, "- N/A -   "
24.58, 857.579, 0.0410932, NaN, NaN, NaN, 0.0323506, "- N/A -   "
24.66, 861.482, 0.0412375, NaN, NaN, NaN, 0.0274675, "- N/A -   "
24.74, 864.7941, 0.0413681, NaN, NaN, NaN, 0.0286883, "- N/A -   "
24.82, 867.8694, 0.04148745, NaN, NaN, NaN, 0.0347922, "- N/A -   "
24.9, 871.3, 0.04162351, NaN, NaN, NaN, 0.0335714, "- N/A -   "
24.98, 874.4931, 0.0417429, NaN, NaN, NaN, 0.0396753, "- N/A -   "
25.06, 877.5685, 0.0418623, NaN, NaN, NaN, 0.04577916, "- N/A -   "
25.14, 881.235, 0.04200115, NaN, NaN, NaN, 0.0433376, "- N/A -   "
25.22, 885.4933, 0.0421566, NaN, NaN, NaN, 0.0335714, "- N/A -   "
25.3, 888.9234, 0.04229549, NaN, NaN, NaN, 0.03112983, "- N/A -   "
25.38, 892.117, 0.0424177, NaN, NaN, NaN, 0.03601294, "- N/A -   "
25.46, 895.6654, 0.0425537, NaN, NaN, NaN, 0.03601294, "- N/A -   "
25.54, 899.4504, 0.04269256, NaN, NaN, NaN, 0.0323506, "- N/A -   "
25.62, 902.4074, 0.04280919, NaN, NaN, NaN, 0.0396753, "- N/A -   "
25.7, 905.8375, 0.0429425, NaN, NaN, NaN, 0.0396753, "- N/A -   "
25.78, 909.386, 0.0430785, NaN, NaN, NaN, 0.0384545, "- N/A -   "
25.86, 913.0527, 0.04321737, NaN, NaN, NaN, 0.03601294, "- N/A -   "
25.94, 916.601, 0.04335065, NaN, NaN, NaN, 0.03601294, "- N/A -   "
26.02, 920.15, 0.0434895, NaN, NaN, NaN, 0.0335714, "- N/A -   "
26.1, 923.9345, 0.0436311, NaN, NaN, NaN, 0.0299091, "- N/A -   "
26.18, 927.2464, 0.0437588, NaN, NaN, NaN, 0.0335714, "- N/A -   "
26.26, 930.7948, 0.0438949, NaN, NaN, NaN, 0.0323506, "- N/A -   "
26.34, 933.9884, 0.0440171, NaN, NaN, NaN, 0.0372337, "- N/A -   "
26.42, 936.9454, 0.0441365, NaN, NaN, NaN, 0.0433376, "- N/A -   "
26.5, 940.3756, 0.0442614, NaN, NaN, NaN, 0.04699994, "- N/A -   "
26.58, 944.2788, 0.0444058, NaN, NaN, NaN, 0.04211683, "- N/A -   "
26.66, 948.1821, 0.04455576, NaN, NaN, NaN, 0.0347922, "- N/A -   "
26.74, 951.7305, 0.044689, NaN, NaN, NaN, 0.0347922, "- N/A -   "
26.82, 955.3972, 0.0448279, NaN, NaN, NaN, 0.0323506, "- N/A -   "
26.9, 959.064, 0.0449695, NaN, NaN, NaN, 0.0286883, "- N/A -   "
26.98, 962.1392, 0.0450889, NaN, NaN, NaN, 0.03601294, "- N/A -   "
27.06, 964.8597, 0.04519719, NaN, NaN, NaN, 0.04577916, "- N/A -   "
27.14, 968.2898, 0.0453221, NaN, NaN, NaN, 0.0494415, "- N/A -   "
27.22, 972.3114, 0.0454721, NaN, NaN, NaN, 0.04211683, "- N/A -   "
27.3, 976.451, 0.045622, NaN, NaN, NaN, 0.0347922, "- N/A -   "
27.38, 980, 0.0457609, NaN, NaN, NaN, 0.0323506, "- N/A -   "
27.46, 984.139, 0.0459108, NaN, NaN, NaN, 0.0250259, "- N/A -   "
27.54, 987.2148, 0.04603577, NaN, NaN, NaN, 0.0286883, "- N/A -   "
27.62, 990.2901, 0.0461524, NaN, NaN, NaN, 0.03601294, "- N/A -   "
27.7, 993.365, 0.0462718, NaN, NaN, NaN, 0.0433376, "- N/A -   "
27.78, 997.032, 0.0464051, NaN, NaN, NaN, 0.04211683, "- N/A -   "
27.86, 1000.23, 0.04653281, NaN, NaN, NaN, 0.0445584, "- N/A -   "
27.94, 1004.01, 0.0466744, NaN, NaN, NaN, 0.04211683, "- N/A -   "
28.02, 1008.27, 0.04682715, NaN, NaN, NaN, 0.0323506, "- N/A -   "
28.1, 1011.82, 0.0469632, NaN, NaN, NaN, 0.03112983, "- N/A -   "
28.18, 1015.385, 0.0470937, NaN, NaN, NaN, 0.0323506, "- N/A -   "
28.26, 1018.72, 0.04721867, NaN, NaN, NaN, 0.03601294, "- N/A -   "
28.34, 1022.06, 0.0473464, NaN, NaN, NaN, 0.0384545, "- N/A -   "
28.42, 1025.283, 0.0474658, NaN, NaN, NaN, 0.0445584, "- N/A -   "
28.5, 1028.74, 0.0475963, NaN, NaN, NaN, 0.04577916, "- N/A -   "
28.58, 1033.03, 0.047749, NaN, NaN, NaN, 0.0372337, "- N/A -   "
28.66, 1037.09, 0.0479017, NaN, NaN, NaN, 0.0286883, "- N/A -   "
28.74, 1040.31, 0.0480239, NaN, NaN, NaN, 0.0335714, "- N/A -   "
28.82, 1043.767, 0.0481544, NaN, NaN, NaN, 0.0347922, "- N/A -   "
28.9, 1048.06, 0.0483072, NaN, NaN, NaN, 0.0262467, "- N/A -   "
28.98, 1051.04, 0.048421, NaN, NaN, NaN, 0.0347922, "- N/A -   "
29.06, 1054.02, 0.0485376, NaN, NaN, NaN, 0.04211683, "- N/A -   "
29.14, 1057.6, 0.04867091, NaN, NaN, NaN, 0.04211683, "- N/A -   "
29.22, 1060.82, 0.04879864, NaN, NaN, NaN, 0.0445584, "- N/A -   "
29.3, 1064.87, 0.0489403, NaN, NaN, NaN, 0.04089605, "- N/A -   "
29.38, 1068.57, 0.0490846, NaN, NaN, NaN, 0.0372337, "- N/A -   "
29.46, 1072.39, 0.0492207, NaN, NaN, NaN, 0.0347922, "- N/A -   "
29.54, 1075.97, 0.0493568, NaN, NaN, NaN, 0.0335714, "- N/A -   "
29.62, 1079.54, 0.04949283, NaN, NaN, NaN, 0.0323506, "- N/A -   "
29.7, 1083.12, 0.0496261, NaN, NaN, NaN, 0.0323506, "- N/A -   "
29.78, 1086.1, 0.04973996, NaN, NaN, NaN, 0.04089605, "- N/A -   "
29.86, 1089.56, 0.04987324, NaN, NaN, NaN, 0.04211683, "- N/A -   "
29.94, 1093.14, 0.05000375, NaN, NaN, NaN, 0.04211683, "- N/A -   "
30.02, 1097.31, 0.05015647, NaN, NaN, NaN, 0.0335714, "- N/A -   "
30.1, 1101.01, 0.0502953, NaN, NaN, NaN, 0.03112983, "- N/A -   "
30.18, 1104.47, 0.0504258, NaN, NaN, NaN, 0.0323506, "- N/A -   "
30.26, 1108.04, 0.05056465, NaN, NaN, NaN, 0.0299091, "- N/A -   "
30.34, 1111.38, 0.0506924, NaN, NaN, NaN, 0.0335714, "- N/A -   "
30.42, 1114.6, 0.0508118, NaN, NaN, NaN, 0.0384545, "- N/A -   "
30.5, 1117.7, 0.0509312, NaN, NaN, NaN, 0.0445584, "- N/A -   "
30.58, 1121.28, 0.05106447, NaN, NaN, NaN, 0.0445584, "- N/A -   "
30.66, 1125.22, 0.0512144, NaN, NaN, NaN, 0.0384545, "- N/A -   "
30.74, 1129.03, 0.05135603, NaN, NaN, NaN, 0.03601294, "- N/A -   "
30.82, 1132.61, 0.0514921, NaN, NaN, NaN, 0.0335714, "- N/A -   "
30.9, 1136.31, 0.0516337, NaN, NaN, NaN, 0.0299091, "- N/A -   "
30.98, 1139.88, 0.0517642, NaN, NaN, NaN, 0.03112983, "- N/A -   "
31.008, 1140.96, 0.0518086, NaN, NaN, NaN, 0.0323506, "- N/A -   "