File: 2_Tensile_Data/Hamel_ForceTest_Bolt8_Test2.csv
Time, Load (lb), Position (in), AxialStrain (in), TransverseStrain (in), Auxiliary (), Control Out (V), Stress (psi)
0.0, 1.06153, 0.0, NaN, NaN, NaN, 0.0799609, "- N/A -   "
0.01, 1.17947, 3.054427E-5, NaN, NaN, NaN, 0.07385705, "- N/A -   "
0.02, 1.29742, 6.108854E-5, NaN, NaN, NaN, 0.06775316, "- N/A -   "
0.03, 1.41537, 8.885606E-5, NaN, NaN, NaN, 0.06287005, "- N/A -   "
0.04, 1.53332, 0.000113847, NaN, NaN, NaN, 0.0592077, "- N/A -   "
0.05, 1.65126, 1.388376E-4, NaN, NaN, NaN, 0.0555454, "- N/A -   "
0.06, 1.76921, 1.610516E-4, NaN, NaN, NaN, 0.0531038, "- N/A -   "
0.07, 1.76921, 0.000183266, NaN, NaN, NaN, 0.05066227, "- N/A -   "
0.08, 1.88716, 0.00020548, NaN, NaN, NaN, 0.0482207, "- N/A -   "
0.09, 2.005107, 0.000227694, NaN, NaN, NaN, 0.04699994, "- N/A -   "
0.1, 2.12305, 2.471309E-4, NaN, NaN, NaN, 0.0445584, "- N/A -   "
0.11, 2.12305, 0.000266568, NaN, NaN, NaN, 0.0433376, "- N/A -   "
0.12, 2.12305, 0.000286005, NaN, NaN, NaN, 0.0433376, "- N/A -   "
0.13, 2.35895, 0.000302666, NaN, NaN, NaN, 0.04211683, "- N/A -   "
0.14, 2.35895, 0.000319326, NaN, NaN, NaN, 0.04211683, "- N/A -   "
0.15, 2.476897, 0.000335987, NaN, NaN, NaN, 0.04211683, "- N/A -   "
0.16, 2.59484, 0.000352647, NaN, NaN, NaN, 0.04211683, "- N/A -   "
0.17, 2.712792, 0.000366531, NaN, NaN, NaN, 0.0433376, "- N/A -   "
0.18, 2.712792, 0.000383192, NaN, NaN, NaN, 0.0433376, "- N/A -   "
0.19, 2.712792, 0.000397076, NaN, NaN, NaN, 0.0445584, "- N/A -   "
0.2, 2.712792, 0.000410959, NaN, NaN, NaN, 0.04577916, "- N/A -   "
0.21, 2.83074, 4.276198E-4, NaN, NaN, NaN, 0.04577916, "- N/A -   "
0.22, 2.94869, 4.442803E-4, NaN, NaN, NaN, 0.04577916, "- N/A -   "
0.23, 3.06663, 0.000458164, NaN, NaN, NaN, 0.04699994, "- N/A -   "
0.24, 3.06663, 0.000474825, NaN, NaN, NaN, 0.04699994, "- N/A -   "
0.25, 3.18458, 0.000491485, NaN, NaN, NaN, 0.04699994, "- N/A -   "
0.26, 3.30253, 0.000510922, NaN, NaN, NaN, 0.04699994, "- N/A -   "
0.27, 3.30253, 5.248061E-4, NaN, NaN, NaN, 0.04699994, "- N/A -   "
0.28, 3.42048, 5.442434E-4, NaN, NaN, NaN, 0.04699994, "- N/A -   "
0.29, 3.42048, 0.000560904, NaN, NaN, NaN, 0.04699994, "- N/A -   "
0.3, 3.53842, 0.000577564, NaN, NaN, NaN, 0.04699994, "- N/A -   "
0.31, 3.65637, 5.942249E-4, NaN, NaN, NaN, 0.04699994, "- N/A -   "
0.32, 3.65637, 6.108854E-4, NaN, NaN, NaN, 0.04577916, "- N/A -   "
0.33, 3.774319, 0.000627546, NaN, NaN, NaN, 0.04577916, "- N/A -   "
0.34, 3.774319, 6.442064E-4, NaN, NaN, NaN, 0.04577916, "- N/A -   "
0.35, 3.774319, 6.636437E-4, NaN, NaN, NaN, 0.04577916, "- N/A -   "
0.36, 4.010214, 6.803042E-4, NaN, NaN, NaN, 0.04577916, "- N/A -   "
0.37, 4.010214, 6.969647E-4, NaN, NaN, NaN, 0.0445584, "- N/A -   "
0.38, 4.12816, 7.136252E-4, NaN, NaN, NaN, 0.0445584, "- N/A -   "
0.39, 4.12816, 0.000733062, NaN, NaN, NaN, 0.0433376, "- N/A -   "
0.4, 4.36406, 7.49723E-4, NaN, NaN, NaN, 0.0433376, "- N/A -   "
0.41, 4.482, 7.663835E-4, NaN, NaN, NaN, 0.0433376, "- N/A -   "
0.42, 4.482, 0.000783044, NaN, NaN, NaN, 0.0433376, "- N/A -   "
0.48, 5.307636, 8.857838E-4, NaN, NaN, NaN, 0.04211683, "- N/A -   "
0.54, 6.251216, 0.00100518, NaN, NaN, NaN, 0.0335714, "- N/A -   "
0.6, 7.430691, 0.001119031, NaN, NaN, NaN, 0.0286883, "- N/A -   "
0.66, 8.37427, 0.00121066, NaN, NaN, NaN, 0.03112983, "- N/A -   "
0.72, 9.31785, 0.0013023, NaN, NaN, NaN, 0.0347922, "- N/A -   "
0.78, 10.26143, 0.001399483, NaN, NaN, NaN, 0.03601294, "- N/A -   "
0.84, 11.323, 0.00150222, NaN, NaN, NaN, 0.0347922, "- N/A -   "
0.9, 12.5024, 0.00159663, NaN, NaN, NaN, 0.0372337, "- N/A -   "
0.96, 13.446, 0.00168271, NaN, NaN, NaN, 0.0433376, "- N/A -   "
1.02, 14.8614, 0.00178267, NaN, NaN, NaN, 0.0433376, "- N/A -   "
1.08, 16.1588, 0.00188541, NaN, NaN, NaN, 0.0433376, "- N/A -   "
1.14, 17.8101, 0.00199926, NaN, NaN, NaN, 0.03601294, "- N/A -   "
1.2, 19.3434, 0.00211033, NaN, NaN, NaN, 0.03112983, "- N/A -   "
1.26, 20.6408, 0.00221029, NaN, NaN, NaN, 0.03112983, "- N/A -   "
1.32, 22.0562, 0.00230193, NaN, NaN, NaN, 0.0347922, "- N/A -   "
1.38, 23.4715, 0.00240189, NaN, NaN, NaN, 0.0347922, "- N/A -   "
1.44, 25.1228, 0.00251018, NaN, NaN, NaN, 0.0323506, "- N/A -   "
1.5, 26.6561, 0.00260182, NaN, NaN, NaN, 0.0347922, "- N/A -   "
1.56, 28.1894, 0.00269623, NaN, NaN, NaN, 0.0372337, "- N/A -   "
1.62, 29.6048, 0.00278508, NaN, NaN, NaN, 0.04211683, "- N/A -   "
1.68, 31.2561, 0.002887822, NaN, NaN, NaN, 0.04089605, "- N/A -   "
1.74, 33.02529, 0.00299056, NaN, NaN, NaN, 0.0396753, "- N/A -   "
1.8, 34.7945, 0.003098855, NaN, NaN, NaN, 0.03601294, "- N/A -   "
1.86, 36.44577, 0.00319326, NaN, NaN, NaN, 0.0384545, "- N/A -   "
1.92, 38.097, 0.00329045, NaN, NaN, NaN, 0.0396753, "- N/A -   "
1.98, 39.98419, 0.00340152, NaN, NaN, NaN, 0.0347922, "- N/A -   "
2.04, 41.7534, 0.00350426, NaN, NaN, NaN, 0.0335714, "- N/A -   "
2.1, 43.2867, 0.00360145, NaN, NaN, NaN, 0.0347922, "- N/A -   "
2.16, 45.05593, 0.00370141, NaN, NaN, NaN, 0.03601294, "- N/A -   "
2.22, 47.061, 0.00380693, NaN, NaN, NaN, 0.0323506, "- N/A -   "
2.28, 48.59436, 0.003904113, NaN, NaN, NaN, 0.0347922, "- N/A -   "
2.34, 50.1277, 0.00399019, NaN, NaN, NaN, 0.0396753, "- N/A -   "
2.4, 51.7789, 0.004084602, NaN, NaN, NaN, 0.04211683, "- N/A -   "
2.46, 53.54815, 0.00418179, NaN, NaN, NaN, 0.0433376, "- N/A -   "
2.52, 55.43531, 0.00429008, NaN, NaN, NaN, 0.0396753, "- N/A -   "
2.58, 57.44042, 0.00440115, NaN, NaN, NaN, 0.03601294, "- N/A -   "
2.64, 59.2096, 0.00450667, NaN, NaN, NaN, 0.0323506, "- N/A -   "
2.7, 60.8609, 0.004606631, NaN, NaN, NaN, 0.0323506, "- N/A -   "
2.76, 62.5122, 0.004703818, NaN, NaN, NaN, 0.0335714, "- N/A -   "
2.82, 64.3993, 0.004812111, NaN, NaN, NaN, 0.0299091, "- N/A -   "
2.88, 65.93263, 0.004909297, NaN, NaN, NaN, 0.03112983, "- N/A -   "
2.94, 67.34801, 0.00500093, NaN, NaN, NaN, 0.03601294, "- N/A -   "
3, 68.8813, 0.005087009, NaN, NaN, NaN, 0.04089605, "- N/A -   "
3.06, 70.17874, 0.00517587, NaN, NaN, NaN, 0.04577916, "- N/A -   "
3.12, 71.94796, 0.00527861, NaN, NaN, NaN, 0.0445584, "- N/A -   "
3.18, 73.9531, 0.00539245, NaN, NaN, NaN, 0.0384545, "- N/A -   "
3.24, 75.6043, 0.00549797, NaN, NaN, NaN, 0.03601294, "- N/A -   "
3.3, 77.25559, 0.00560071, NaN, NaN, NaN, 0.03601294, "- N/A -   "
3.36, 78.90686, 0.005709002, NaN, NaN, NaN, 0.03112983, "- N/A -   "
3.42, 80.67606, 0.005820072, NaN, NaN, NaN, 0.0262467, "- N/A -   "
3.48, 81.97349, 0.005914482, NaN, NaN, NaN, 0.0286883, "- N/A -   "
3.54, 83.50681, 0.006008891, NaN, NaN, NaN, 0.0323506, "- N/A -   "
3.6, 84.92217, 0.006097747, NaN, NaN, NaN, 0.0372337, "- N/A -   "
3.66, 86.2196, 0.006186603, NaN, NaN, NaN, 0.04211683, "- N/A -   "
3.72, 87.75292, 0.00628379, NaN, NaN, NaN, 0.0433376, "- N/A -   "
3.78, 89.40418, 0.006383753, NaN, NaN, NaN, 0.0433376, "- N/A -   "
3.84, 91.1734, 0.006483716, NaN, NaN, NaN, 0.0433376, "- N/A -   "
3.9, 92.94261, 0.006597562, NaN, NaN, NaN, 0.0372337, "- N/A -   "
3.96, 94.8298, 0.006714186, NaN, NaN, NaN, 0.0299091, "- N/A -   "
4.02, 96.599, 0.006819702, NaN, NaN, NaN, 0.0286883, "- N/A -   "
4.08, 98.01435, 0.00691411, NaN, NaN, NaN, 0.0299091, "- N/A -   "
4.14, 99.3118, 0.00700019, NaN, NaN, NaN, 0.03601294, "- N/A -   "
4.2, 100.963, 0.00709738, NaN, NaN, NaN, 0.0372337, "- N/A -   "
4.26, 102.496, 0.00719734, NaN, NaN, NaN, 0.0384545, "- N/A -   "
4.32, 104.148, 0.00729175, NaN, NaN, NaN, 0.0396753, "- N/A -   "
4.38, 105.563, 0.00738616, NaN, NaN, NaN, 0.0433376, "- N/A -   "
4.44, 107.0963, 0.00748335, NaN, NaN, NaN, 0.0445584, "- N/A -   "
4.5, 108.983, 0.007586086, NaN, NaN, NaN, 0.04211683, "- N/A -   "
4.56, 110.989, 0.007708263, NaN, NaN, NaN, 0.0335714, "- N/A -   "
4.62, 112.758, 0.007811003, NaN, NaN, NaN, 0.0323506, "- N/A -   "
4.68, 114.173, 0.007905412, NaN, NaN, NaN, 0.0335714, "- N/A -   "
4.74, 115.706, 0.00799982, NaN, NaN, NaN, 0.03601294, "- N/A -   "
4.8, 117.476, 0.008105339, NaN, NaN, NaN, 0.0347922, "- N/A -   "
4.86, 119.127, 0.008205302, NaN, NaN, NaN, 0.0335714, "- N/A -   "
4.92, 120.778, 0.008305265, NaN, NaN, NaN, 0.0335714, "- N/A -   "
4.98, 122.194, 0.008396897, NaN, NaN, NaN, 0.0372337, "- N/A -   "
5.04, 123.609, 0.008485753, NaN, NaN, NaN, 0.04211683, "- N/A -   "
5.1, 125.496, 0.00859127, NaN, NaN, NaN, 0.0396753, "- N/A -   "
5.16, 127.029, 0.008691234, NaN, NaN, NaN, 0.0396753, "- N/A -   "
5.22, 128.917, 0.00879675, NaN, NaN, NaN, 0.0372337, "- N/A -   "
5.28, 130.4499, 0.008899489, NaN, NaN, NaN, 0.03601294, "- N/A -   "
5.34, 132.101, 0.009002229, NaN, NaN, NaN, 0.03601294, "- N/A -   "
5.4, 133.752, 0.009107746, NaN, NaN, NaN, 0.0335714, "- N/A -   "
5.46, 135.4037, 0.009207709, NaN, NaN, NaN, 0.0335714, "- N/A -   "
5.52, 136.937, 0.009304896, NaN, NaN, NaN, 0.0335714, "- N/A -   "
5.58, 138.47, 0.009402081, NaN, NaN, NaN, 0.03601294, "- N/A -   "
5.64, 140.24, 0.009504821, NaN, NaN, NaN, 0.0335714, "- N/A -   "
5.7, 141.891, 0.009602007, NaN, NaN, NaN, 0.03601294, "- N/A -   "
5.76, 143.306, 0.009690863, NaN, NaN, NaN, 0.0396753, "- N/A -   "
5.82, 144.957, 0.009788051, NaN, NaN, NaN, 0.04211683, "- N/A -   "
5.88, 146.491, 0.00988246, NaN, NaN, NaN, 0.0445584, "- N/A -   "
5.94, 148.496, 0.009993529, NaN, NaN, NaN, 0.0384545, "- N/A -   "
6, 150.501, 0.0101074, NaN, NaN, NaN, 0.0323506, "- N/A -   "
6.06, 152.034, 0.0102046, NaN, NaN, NaN, 0.0335714, "- N/A -   "
6.12, 153.568, 0.01030175, NaN, NaN, NaN, 0.0347922, "- N/A -   "
6.18, 155.573, 0.01041, NaN, NaN, NaN, 0.03112983, "- N/A -   "
6.24, 157.224, 0.01051556, NaN, NaN, NaN, 0.0286883, "- N/A -   "
6.3, 158.7573, 0.01061, NaN, NaN, NaN, 0.03112983, "- N/A -   "
6.36, 160.2906, 0.0107016, NaN, NaN, NaN, 0.03601294, "- N/A -   "
6.42, 161.706, 0.0107877, NaN, NaN, NaN, 0.04211683, "- N/A -   "
6.48, 163.121, 0.0108765, NaN, NaN, NaN, 0.04577916, "- N/A -   "
6.54, 164.891, 0.0109793, NaN, NaN, NaN, 0.0445584, "- N/A -   "
6.6, 167.014, 0.0110931, NaN, NaN, NaN, 0.0384545, "- N/A -   "
6.66, 168.901, 0.0112014, NaN, NaN, NaN, 0.0347922, "- N/A -   "
6.72, 170.552, 0.01130138, NaN, NaN, NaN, 0.0347922, "- N/A -   "
6.78, 172.557, 0.0114125, NaN, NaN, NaN, 0.0299091, "- N/A -   "
6.84, 174.326, 0.01151519, NaN, NaN, NaN, 0.0286883, "- N/A -   "
6.9, 175.978, 0.0116179, NaN, NaN, NaN, 0.0274675, "- N/A -   "
6.96, 177.393, 0.011704, NaN, NaN, NaN, 0.0335714, "- N/A -   "
7.02, 178.926, 0.0117929, NaN, NaN, NaN, 0.0384545, "- N/A -   "
7.08, 180.342, 0.0118817, NaN, NaN, NaN, 0.0445584, "- N/A -   "
7.14, 182.1109, 0.0119789, NaN, NaN, NaN, 0.0445584, "- N/A -   "
7.2, 183.998, 0.0120844, NaN, NaN, NaN, 0.0433376, "- N/A -   "
7.26, 185.885, 0.0121899, NaN, NaN, NaN, 0.0396753, "- N/A -   "
7.32, 188.008, 0.0123066, NaN, NaN, NaN, 0.0323506, "- N/A -   "
7.38, 190.013, 0.01242041, NaN, NaN, NaN, 0.0262467, "- N/A -   "
7.44, 191.665, 0.012512, NaN, NaN, NaN, 0.0299091, "- N/A -   "
7.5, 193.3159, 0.01260923, NaN, NaN, NaN, 0.03112983, "- N/A -   "
7.56, 194.967, 0.0127036, NaN, NaN, NaN, 0.0335714, "- N/A -   "
7.62, 196.618, 0.012798, NaN, NaN, NaN, 0.03601294, "- N/A -   "
7.68, 198.388, 0.0128952, NaN, NaN, NaN, 0.0372337, "- N/A -   "
7.74, 200.157, 0.0129924, NaN, NaN, NaN, 0.0396753, "- N/A -   "
7.8, 201.808, 0.0130841, NaN, NaN, NaN, 0.0433376, "- N/A -   "
7.86, 203.577, 0.0131812, NaN, NaN, NaN, 0.0433376, "- N/A -   "
7.92, 205.582, 0.0132923, NaN, NaN, NaN, 0.0384545, "- N/A -   "
7.98, 207.705, 0.0134062, NaN, NaN, NaN, 0.0323506, "- N/A -   "
8.04, 209.593, 0.0135145, NaN, NaN, NaN, 0.03112983, "- N/A -   "
8.1, 211.244, 0.0136089, NaN, NaN, NaN, 0.0335714, "- N/A -   "
8.16, 213.013, 0.0137005, NaN, NaN, NaN, 0.03601294, "- N/A -   "
8.22, 214.9, 0.01380601, NaN, NaN, NaN, 0.0335714, "- N/A -   "
8.28, 216.787, 0.0139115, NaN, NaN, NaN, 0.0323506, "- N/A -   "
8.34, 218.321, 0.0140032, NaN, NaN, NaN, 0.03601294, "- N/A -   "
8.4, 219.972, 0.014092, NaN, NaN, NaN, 0.0396753, "- N/A -   "
8.46, 221.623, 0.0141836, NaN, NaN, NaN, 0.0445584, "- N/A -   "
8.52, 223.51, 0.0142864, NaN, NaN, NaN, 0.04211683, "- N/A -   "
8.58, 225.6335, 0.0143919, NaN, NaN, NaN, 0.0396753, "- N/A -   "
8.64, 227.639, 0.014503, NaN, NaN, NaN, 0.03601294, "- N/A -   "
8.7, 229.644, 0.0146057, NaN, NaN, NaN, 0.0335714, "- N/A -   "
8.76, 231.295, 0.0147001, NaN, NaN, NaN, 0.03601294, "- N/A -   "
8.82, 233.3001, 0.0148056, NaN, NaN, NaN, 0.0335714, "- N/A -   "
8.88, 235.187, 0.0149028, NaN, NaN, NaN, 0.0347922, "- N/A -   "
8.94, 237.074, 0.0150028, NaN, NaN, NaN, 0.0347922, "- N/A -   "
8.96, 237.664, 0.0150361, NaN, NaN, NaN, 0.0347922, "- N/A -   "
8.97, 237.9, 0.01505, NaN, NaN, NaN, 0.03601294, "- N/A -   "
8.98, 238.136, 0.0150667, NaN, NaN, NaN, 0.03601294, "- N/A -   "
9.1, 241.91, 0.0152638, NaN, NaN, NaN, 0.0372337, "- N/A -   "
9.22, 245.799, 0.015461, NaN, NaN, NaN, 0.0384545, "- N/A -   "
9.34, 249.452, 0.0156609, NaN, NaN, NaN, 0.0396753, "- N/A -   "
9.46, 253.458, 0.0158691, NaN, NaN, NaN, 0.0347922, "- N/A -   "
9.58, 257.4639, 0.0160774, NaN, NaN, NaN, 0.03112983, "- N/A -   "
9.7, 260.9987, 0.0162662, NaN, NaN, NaN, 0.03601294, "- N/A -   "
9.82, 264.6513, 0.01645781, NaN, NaN, NaN, 0.0396753, "- N/A -   "
9.94, 268.422, 0.01664385, NaN, NaN, NaN, 0.04699994, "- N/A -   "
10.06, 273.017, 0.01687432, NaN, NaN, NaN, 0.0323506, "- N/A -   "
10.18, 276.9052, 0.0170798, NaN, NaN, NaN, 0.03112983, "- N/A -   "
10.3, 281.0291, 0.0172825, NaN, NaN, NaN, 0.0286883, "- N/A -   "
10.42, 284.446, 0.0174602, NaN, NaN, NaN, 0.0396753, "- N/A -   "
10.54, 288.217, 0.017649, NaN, NaN, NaN, 0.0433376, "- N/A -   "
10.66, 292.34, 0.0178545, NaN, NaN, NaN, 0.04089605, "- N/A -   "
10.78, 297.0535, 0.01807943, NaN, NaN, NaN, 0.03112983, "- N/A -   "
10.9, 301.1774, 0.0182821, NaN, NaN, NaN, 0.0299091, "- N/A -   "
11.02, 305.183, 0.01847373, NaN, NaN, NaN, 0.0323506, "- N/A -   "
11.14, 308.9539, 0.01866255, NaN, NaN, NaN, 0.0372337, "- N/A -   "
11.26, 312.6065, 0.0188458, NaN, NaN, NaN, 0.0445584, "- N/A -   "
11.38, 317.32, 0.019068, NaN, NaN, NaN, 0.0347922, "- N/A -   "
11.5, 321.5613, 0.01927899, NaN, NaN, NaN, 0.03112983, "- N/A -   "
11.62, 325.332, 0.0194595, NaN, NaN, NaN, 0.0384545, "- N/A -   "
11.74, 330.1626, 0.0196761, NaN, NaN, NaN, 0.03112983, "- N/A -   "
11.86, 333.58, 0.019851, NaN, NaN, NaN, 0.04211683, "- N/A -   "
11.98, 338.057, 0.0200565, NaN, NaN, NaN, 0.0396753, "- N/A -   "
12.1, 342.181, 0.0202592, NaN, NaN, NaN, 0.0396753, "- N/A -   "
12.22, 346.7761, 0.02047299, NaN, NaN, NaN, 0.0335714, "- N/A -   "
12.34, 351.371, 0.0206812, NaN, NaN, NaN, 0.0286883, "- N/A -   "
12.46, 355.3774, 0.0208756, NaN, NaN, NaN, 0.03112983, "- N/A -   "
12.58, 359.266, 0.0210589, NaN, NaN, NaN, 0.0396753, "- N/A -   "
12.7, 363.272, 0.02124493, NaN, NaN, NaN, 0.04699994, "- N/A -   "
12.82, 368.338, 0.0214726, NaN, NaN, NaN, 0.0335714, "- N/A -   "
12.94, 372.6978, 0.0216725, NaN, NaN, NaN, 0.0335714, "- N/A -   "
13.06, 377.175, 0.0218808, NaN, NaN, NaN, 0.0299091, "- N/A -   "
13.18, 381.063, 0.02206407, NaN, NaN, NaN, 0.0372337, "- N/A -   "
13.3, 384.834, 0.022239, NaN, NaN, NaN, 0.0494415, "- N/A -   "
13.42, 390.018, 0.0224611, NaN, NaN, NaN, 0.0384545, "- N/A -   "
13.54, 394.496, 0.0226694, NaN, NaN, NaN, 0.0347922, "- N/A -   "
13.66, 399.3265, 0.02288599, NaN, NaN, NaN, 0.0274675, "- N/A -   "
13.78, 403.568, 0.0230776, NaN, NaN, NaN, 0.03112983, "- N/A -   "
13.9, 407.339, 0.0232525, NaN, NaN, NaN, 0.04211683, "- N/A -   "
14.02, 411.934, 0.0234497, NaN, NaN, NaN, 0.0433376, "- N/A -   "
14.14, 416.647, 0.0236607, NaN, NaN, NaN, 0.0396753, "- N/A -   "
14.26, 421.713, 0.0238801, NaN, NaN, NaN, 0.0299091, "- N/A -   "
14.38, 425.955, 0.02406611, NaN, NaN, NaN, 0.03601294, "- N/A -   "
14.5, 430.4326, 0.0242633, NaN, NaN, NaN, 0.0372337, "- N/A -   "
14.62, 434.674, 0.0244493, NaN, NaN, NaN, 0.0433376, "- N/A -   "
14.74, 439.5052, 0.0246576, NaN, NaN, NaN, 0.0396753, "- N/A -   "
14.86, 445.043, 0.0248936, NaN, NaN, NaN, 0.0250259, "- N/A -   "
14.98, 448.813, 0.025063, NaN, NaN, NaN, 0.0372337, "- N/A -   "
15.1, 453.4087, 0.0252629, NaN, NaN, NaN, 0.0372337, "- N/A -   "
15.22, 457.65, 0.0254517, NaN, NaN, NaN, 0.04211683, "- N/A -   "
15.34, 462.599, 0.02566274, NaN, NaN, NaN, 0.0372337, "- N/A -   "
15.46, 467.548, 0.02586822, NaN, NaN, NaN, 0.0347922, "- N/A -   "
15.58, 472.0252, 0.0260681, NaN, NaN, NaN, 0.0347922, "- N/A -   "
15.7, 476.856, 0.0262764, NaN, NaN, NaN, 0.0323506, "- N/A -   "
15.82, 481.3335, 0.0264652, NaN, NaN, NaN, 0.03601294, "- N/A -   "
15.94, 486.047, 0.02666515, NaN, NaN, NaN, 0.03601294, "- N/A -   "
16.06, 490.288, 0.026854, NaN, NaN, NaN, 0.04211683, "- N/A -   "
16.18, 495.3548, 0.027065, NaN, NaN, NaN, 0.03601294, "- N/A -   "
16.3, 500.186, 0.02727048, NaN, NaN, NaN, 0.0335714, "- N/A -   "
16.42, 505.017, 0.0274815, NaN, NaN, NaN, 0.0299091, "- N/A -   "
16.54, 509.612, 0.0276731, NaN, NaN, NaN, 0.0323506, "- N/A -   "
16.66, 513.855, 0.0278508, NaN, NaN, NaN, 0.04211683, "- N/A -   "
16.78, 518.4678, 0.028048, NaN, NaN, NaN, 0.0433376, "- N/A -   "
16.9, 523.9087, 0.0282673, NaN, NaN, NaN, 0.0347922, "- N/A -   "
17.02, 528.64, 0.0284728, NaN, NaN, NaN, 0.0323506, "- N/A -   "
17.14, 533.6077, 0.0286755, NaN, NaN, NaN, 0.0323506, "- N/A -   "
17.26, 537.984, 0.0288588, NaN, NaN, NaN, 0.0396753, "- N/A -   "
17.38, 542.4788, 0.0290476, NaN, NaN, NaN, 0.0445584, "- N/A -   "
17.5, 547.5649, 0.0292586, NaN, NaN, NaN, 0.0396753, "- N/A -   "
17.62, 553.1241, 0.0294863, NaN, NaN, NaN, 0.0286883, "- N/A -   "
17.74, 557.737, 0.0296779, NaN, NaN, NaN, 0.03112983, "- N/A -   "
17.86, 562.2317, 0.029864, NaN, NaN, NaN, 0.0372337, "- N/A -   "
17.98, 566.9629, 0.0300583, NaN, NaN, NaN, 0.04089605, "- N/A -   "
18.1, 571.576, 0.0302444, NaN, NaN, NaN, 0.04699994, "- N/A -   "
18.22, 577.253, 0.0304693, NaN, NaN, NaN, 0.0347922, "- N/A -   "
18.34, 582.2211, 0.030672, NaN, NaN, NaN, 0.0335714, "- N/A -   "
18.46, 587.189, 0.0308719, NaN, NaN, NaN, 0.0335714, "- N/A -   "
18.58, 591.802, 0.0310663, NaN, NaN, NaN, 0.03601294, "- N/A -   "
18.7, 596.297, 0.0312496, NaN, NaN, NaN, 0.0445584, "- N/A -   "
18.82, 601.2644, 0.03145227, NaN, NaN, NaN, 0.04211683, "- N/A -   "
18.94, 606.8236, 0.0316716, NaN, NaN, NaN, 0.0335714, "- N/A -   "
19.06, 611.7914, 0.03187711, NaN, NaN, NaN, 0.0323506, "- N/A -   "
19.18, 616.6409, 0.03207426, NaN, NaN, NaN, 0.0323506, "- N/A -   "
19.3, 621.7269, 0.0322742, NaN, NaN, NaN, 0.0323506, "- N/A -   "
19.42, 626.2216, 0.0324575, NaN, NaN, NaN, 0.04089605, "- N/A -   "
19.54, 630.7163, 0.0326435, NaN, NaN, NaN, 0.04699994, "- N/A -   "
19.66, 636.5121, 0.0328656, NaN, NaN, NaN, 0.0372337, "- N/A -   "
19.78, 641.716, 0.0330711, NaN, NaN, NaN, 0.0335714, "- N/A -   "
19.9, 647.157, 0.0332877, NaN, NaN, NaN, 0.0274675, "- N/A -   "
20.02, 651.2972, 0.03345986, NaN, NaN, NaN, 0.0384545, "- N/A -   "
20.14, 655.91, 0.0336431, NaN, NaN, NaN, 0.04577916, "- N/A -   "
20.26, 661.706, 0.0338653, NaN, NaN, NaN, 0.03601294, "- N/A -   "
20.38, 667.147, 0.0340791, NaN, NaN, NaN, 0.0299091, "- N/A -   "
20.5, 672.2329, 0.03428178, NaN, NaN, NaN, 0.0286883, "- N/A -   "
20.62, 676.9642, 0.0344734, NaN, NaN, NaN, 0.0323506, "- N/A -   "
20.74, 681.3405, 0.03464831, NaN, NaN, NaN, 0.0433376, "- N/A -   "
20.86, 686.545, 0.0348482, NaN, NaN, NaN, 0.0433376, "- N/A -   "
20.98, 691.9858, 0.03505927, NaN, NaN, NaN, 0.0384545, "- N/A -   "
21.1, 697.545, 0.0352786, NaN, NaN, NaN, 0.0299091, "- N/A -   "
21.22, 702.3945, 0.0354675, NaN, NaN, NaN, 0.0347922, "- N/A -   "
21.34, 707.3623, 0.0356618, NaN, NaN, NaN, 0.0384545, "- N/A -   "
21.46, 712.2118, 0.0358506, NaN, NaN, NaN, 0.04211683, "- N/A -   "
21.58, 717.6527, 0.0360617, NaN, NaN, NaN, 0.0384545, "- N/A -   "
21.7, 723.2119, 0.036281, NaN, NaN, NaN, 0.0299091, "- N/A -   "
21.82, 728.1797, 0.0364726, NaN, NaN, NaN, 0.0347922, "- N/A -   "
21.94, 733.2658, 0.0366753, NaN, NaN, NaN, 0.0335714, "- N/A -   "
22.06, 737.7605, 0.0368531, NaN, NaN, NaN, 0.04211683, "- N/A -   "
22.18, 743.0831, 0.0370585, NaN, NaN, NaN, 0.0396753, "- N/A -   "
22.3, 748.406, 0.03726401, NaN, NaN, NaN, 0.0384545, "- N/A -   "
22.42, 753.4918, 0.03746116, NaN, NaN, NaN, 0.0384545, "- N/A -   "
22.54, 758.933, 0.03767219, NaN, NaN, NaN, 0.0335714, "- N/A -   "
22.66, 764.1371, 0.0378721, NaN, NaN, NaN, 0.0335714, "- N/A -   "
22.78, 768.987, 0.0380637, NaN, NaN, NaN, 0.0372337, "- N/A -   "
22.9, 773.8361, 0.0382525, NaN, NaN, NaN, 0.0433376, "- N/A -   "
23.02, 779.5136, 0.0384636, NaN, NaN, NaN, 0.0384545, "- N/A -   "
23.14, 784.9545, 0.03867182, NaN, NaN, NaN, 0.0335714, "- N/A -   "
23.26, 790.277, 0.0388801, NaN, NaN, NaN, 0.0299091, "- N/A -   "
23.38, 795.4815, 0.0390772, NaN, NaN, NaN, 0.03112983, "- N/A -   "
23.5, 799.8579, 0.0392466, NaN, NaN, NaN, 0.0445584, "- N/A -   "
23.62, 805.181, 0.03944931, NaN, NaN, NaN, 0.0433376, "- N/A -   "
23.74, 810.74, 0.03966312, NaN, NaN, NaN, 0.0372337, "- N/A -   "
23.86, 816.181, 0.0398742, NaN, NaN, NaN, 0.0323506, "- N/A -   "
23.98, 821.5033, 0.04007964, NaN, NaN, NaN, 0.0299091, "- N/A -   "
24.1, 826.1163, 0.04025735, NaN, NaN, NaN, 0.0396753, "- N/A -   "
24.22, 830.9658, 0.0404489, NaN, NaN, NaN, 0.0433376, "- N/A -   "
24.34, 836.525, 0.04066, NaN, NaN, NaN, 0.0396753, "- N/A -   "
24.46, 842.439, 0.0408849, NaN, NaN, NaN, 0.0274675, "- N/A -   "
24.58, 847.4068, 0.0410765, NaN, NaN, NaN, 0.03112983, "- N/A -   "
24.7, 852.375, 0.0412681, NaN, NaN, NaN, 0.0347922, "- N/A -   "
24.82, 857.2241, 0.0414569, NaN, NaN, NaN, 0.0396753, "- N/A -   "
24.94, 862.192, 0.04164572, NaN, NaN, NaN, 0.0445584, "- N/A -   "
25.06, 868.3425, 0.0418706, NaN, NaN, NaN, 0.0335714, "- N/A -   "
25.18, 873.3103, 0.042065, NaN, NaN, NaN, 0.03601294, "- N/A -   "
25.3, 878.7512, 0.0422677, NaN, NaN, NaN, 0.03601294, "- N/A -   "
25.42, 883.9556, 0.0424676, NaN, NaN, NaN, 0.0347922, "- N/A -   "
25.54, 888.9234, 0.0426565, NaN, NaN, NaN, 0.0396753, "- N/A -   "
25.66, 894.246, 0.0428619, NaN, NaN, NaN, 0.0384545, "- N/A -   "
25.78, 899.687, 0.0430674, NaN, NaN, NaN, 0.0347922, "- N/A -   "
25.9, 905.364, 0.0432785, NaN, NaN, NaN, 0.0299091, "- N/A -   "
26.02, 910.3322, 0.0434728, NaN, NaN, NaN, 0.0335714, "- N/A -   "
26.14, 915.4183, 0.04367, NaN, NaN, NaN, 0.03601294, "- N/A -   "
26.26, 920.3861, 0.04385324, NaN, NaN, NaN, 0.04211683, "- N/A -   "
26.38, 925.472, 0.0440476, NaN, NaN, NaN, 0.0445584, "- N/A -   "
26.5, 931.504, 0.0442698, NaN, NaN, NaN, 0.0347922, "- N/A -   "
26.62, 936.5906, 0.0444669, NaN, NaN, NaN, 0.0372337, "- N/A -   "
26.74, 942.3863, 0.0446835, NaN, NaN, NaN, 0.0286883, "- N/A -   "
26.78, 943.687, 0.0447418, NaN, NaN, NaN, 0.0323506, "- N/A -   "