File: 2_Tensile_Data/Hamel_ForceTest_Bolt10_Test4.csv
Time, Load (lb), Position (in), AxialStrain (in), TransverseStrain (in), Auxiliary (), Control Out (V), Stress (psi)
0.0, 1.06153, 0.0, NaN, NaN, NaN, 0.08850638, "- N/A -   "
0.01, 1.53332, 2.49908e-05, NaN, NaN, NaN, 0.09705182, "- N/A -   "
0.02, 2.005107, 5.27583e-05, NaN, NaN, NaN, 0.104376, "- N/A -   "
0.03, 2.59484, 8.33026e-05, NaN, NaN, NaN, 0.103156, "- N/A -   "
0.04, 3.18458, 0.000116624, NaN, NaN, NaN, 0.09705182, "- N/A -   "
0.05, 3.774319, 0.000147168, NaN, NaN, NaN, 0.09094793, "- N/A -   "
0.06, 4.36406, 0.000177712, NaN, NaN, NaN, 0.084844, "- N/A -   "
0.07, 4.953794, 0.000208256, NaN, NaN, NaN, 0.07874016, "- N/A -   "
0.08, 5.54353, 2.360239E-4, NaN, NaN, NaN, 0.07385705, "- N/A -   "
0.09, 6.01532, 0.000263791, NaN, NaN, NaN, 0.06775316, "- N/A -   "
0.1, 6.487111, 0.000291559, NaN, NaN, NaN, 0.0640908, "- N/A -   "
0.11, 6.9589, 3.165497E-4, NaN, NaN, NaN, 0.0592077, "- N/A -   "
0.12, 7.430691, 0.00034154, NaN, NaN, NaN, 0.0555454, "- N/A -   "
0.13, 7.90248, 0.000366531, NaN, NaN, NaN, 0.05188305, "- N/A -   "
0.14, 8.37427, 0.000391522, NaN, NaN, NaN, 0.0494415, "- N/A -   "
0.15, 8.728113, 0.000410959, NaN, NaN, NaN, 0.04699994, "- N/A -   "
0.16, 9.081955, 0.000430397, NaN, NaN, NaN, 0.04577916, "- N/A -   "
0.17, 9.435798, 0.000449834, NaN, NaN, NaN, 0.0445584, "- N/A -   "
0.18, 9.78964, 4.664943E-4, NaN, NaN, NaN, 0.0445584, "- N/A -   "
0.19, 10.26143, 4.831548E-4, NaN, NaN, NaN, 0.0445584, "- N/A -   "
0.2, 10.3794, 0.000502592, NaN, NaN, NaN, 0.0433376, "- N/A -   "
0.21, 10.73322, 5.164758E-4, NaN, NaN, NaN, 0.0445584, "- N/A -   "
0.22, 10.9691, 0.000533136, NaN, NaN, NaN, 0.0445584, "- N/A -   "
0.23, 11.205, 5.470201E-4, NaN, NaN, NaN, 0.04577916, "- N/A -   "
0.24, 11.5589, 5.636806E-4, NaN, NaN, NaN, 0.04699994, "- N/A -   "
0.25, 11.7947, 0.000577564, NaN, NaN, NaN, 0.0482207, "- N/A -   "
0.26, 12.14859, 5.942249E-4, NaN, NaN, NaN, 0.0482207, "- N/A -   "
0.27, 12.3845, 0.000608109, NaN, NaN, NaN, 0.0482207, "- N/A -   "
0.28, 12.7383, 0.000624769, NaN, NaN, NaN, 0.0482207, "- N/A -   "
0.29, 13.09217, 6.414297E-4, NaN, NaN, NaN, 0.0482207, "- N/A -   "
0.3, 13.3281, 0.000655313, NaN, NaN, NaN, 0.0494415, "- N/A -   "
0.31, 13.564, 6.719739E-4, NaN, NaN, NaN, 0.0494415, "- N/A -   "
0.32, 13.9178, 0.000688634, NaN, NaN, NaN, 0.0494415, "- N/A -   "
0.33, 14.2716, 0.000705295, NaN, NaN, NaN, 0.0494415, "- N/A -   "
0.34, 14.6255, 7.219555E-4, NaN, NaN, NaN, 0.0494415, "- N/A -   "
0.35, 14.8614, 7.38616E-4, NaN, NaN, NaN, 0.0494415, "- N/A -   "
0.36, 15.0973, 0.000758053, NaN, NaN, NaN, 0.0494415, "- N/A -   "
0.42, 17.3383, 8.691233E-4, NaN, NaN, NaN, 0.0445584, "- N/A -   "
0.48, 19.6972, 9.857469E-4, NaN, NaN, NaN, 0.03601294, "- N/A -   "
0.54, 21.7023, 0.00109126, NaN, NaN, NaN, 0.0335714, "- N/A -   "
0.6, 23.4715, 0.001194, NaN, NaN, NaN, 0.0323506, "- N/A -   "
0.66, 25.5946, 0.00129952, NaN, NaN, NaN, 0.0299091, "- N/A -   "
0.72, 27.5997, 0.001399483, NaN, NaN, NaN, 0.03112983, "- N/A -   "
0.78, 29.3689, 0.00149112, NaN, NaN, NaN, 0.0335714, "- N/A -   "
0.84, 31.0202, 0.00158275, NaN, NaN, NaN, 0.0384545, "- N/A -   "
0.9, 32.9073, 0.00166883, NaN, NaN, NaN, 0.0433376, "- N/A -   "
0.96, 34.7945, 0.00176601, NaN, NaN, NaN, 0.0445584, "- N/A -   "
1.02, 36.79961, 0.00186598, NaN, NaN, NaN, 0.0445584, "- N/A -   "
1.08, 38.9227, 0.00197149, NaN, NaN, NaN, 0.04211683, "- N/A -   "
1.14, 41.04572, 0.00207423, NaN, NaN, NaN, 0.04089605, "- N/A -   "
1.2, 43.5226, 0.00219641, NaN, NaN, NaN, 0.0323506, "- N/A -   "
1.26, 45.6457, 0.00229915, NaN, NaN, NaN, 0.0299091, "- N/A -   "
1.32, 47.5328, 0.002396337, NaN, NaN, NaN, 0.0323506, "- N/A -   "
1.38, 49.5379, 0.00249075, NaN, NaN, NaN, 0.0347922, "- N/A -   "
1.44, 51.66099, 0.00258793, NaN, NaN, NaN, 0.0347922, "- N/A -   "
1.5, 53.54815, 0.00268234, NaN, NaN, NaN, 0.0372337, "- N/A -   "
1.56, 55.6712, 0.00277953, NaN, NaN, NaN, 0.0384545, "- N/A -   "
1.62, 57.5584, 0.00286838, NaN, NaN, NaN, 0.0433376, "- N/A -   "
1.68, 59.5635, 0.00296279, NaN, NaN, NaN, 0.04577916, "- N/A -   "
1.74, 61.8045, 0.003065534, NaN, NaN, NaN, 0.0445584, "- N/A -   "
1.8, 64.28137, 0.00318493, NaN, NaN, NaN, 0.03601294, "- N/A -   "
1.86, 66.75827, 0.003298781, NaN, NaN, NaN, 0.03112983, "- N/A -   "
1.92, 68.8813, 0.00340152, NaN, NaN, NaN, 0.0299091, "- N/A -   "
1.98, 70.88643, 0.00349038, NaN, NaN, NaN, 0.0347922, "- N/A -   "
2.04, 73.00948, 0.00359034, NaN, NaN, NaN, 0.0335714, "- N/A -   "
2.1, 75.13254, 0.00369308, NaN, NaN, NaN, 0.0323506, "- N/A -   "
2.16, 77.13765, 0.00378749, NaN, NaN, NaN, 0.03601294, "- N/A -   "
2.22, 79.2607, 0.003881899, NaN, NaN, NaN, 0.0372337, "- N/A -   "
2.28, 80.912, 0.00397076, NaN, NaN, NaN, 0.0433376, "- N/A -   "
2.34, 83.15297, 0.004073495, NaN, NaN, NaN, 0.04089605, "- N/A -   "
2.4, 85.39397, 0.004176235, NaN, NaN, NaN, 0.0396753, "- N/A -   "
2.46, 87.51702, 0.00428175, NaN, NaN, NaN, 0.0384545, "- N/A -   "
2.52, 89.6401, 0.00438171, NaN, NaN, NaN, 0.0372337, "- N/A -   "
2.58, 91.76313, 0.00448168, NaN, NaN, NaN, 0.0372337, "- N/A -   "
2.64, 93.8862, 0.00458997, NaN, NaN, NaN, 0.0347922, "- N/A -   "
2.7, 96.00924, 0.00469271, NaN, NaN, NaN, 0.0335714, "- N/A -   "
2.76, 97.8964, 0.00478712, NaN, NaN, NaN, 0.0347922, "- N/A -   "
2.82, 99.9015, 0.004887083, NaN, NaN, NaN, 0.0347922, "- N/A -   "
2.88, 102.025, 0.0049926, NaN, NaN, NaN, 0.0323506, "- N/A -   "
2.94, 104.03, 0.00508979, NaN, NaN, NaN, 0.0347922, "- N/A -   "
3, 105.681, 0.00517864, NaN, NaN, NaN, 0.0384545, "- N/A -   "
3.06, 107.45, 0.00527028, NaN, NaN, NaN, 0.04211683, "- N/A -   "
3.12, 109.3373, 0.00536746, NaN, NaN, NaN, 0.0433376, "- N/A -   "
3.18, 111.46, 0.00547298, NaN, NaN, NaN, 0.04211683, "- N/A -   "
3.24, 113.701, 0.0055896, NaN, NaN, NaN, 0.0335714, "- N/A -   "
3.3, 115.824, 0.00569234, NaN, NaN, NaN, 0.0323506, "- N/A -   "
3.36, 117.476, 0.00578953, NaN, NaN, NaN, 0.0335714, "- N/A -   "
3.42, 119.599, 0.00589227, NaN, NaN, NaN, 0.0323506, "- N/A -   "
3.48, 121.722, 0.005997784, NaN, NaN, NaN, 0.0299091, "- N/A -   "
3.54, 123.373, 0.00609497, NaN, NaN, NaN, 0.0335714, "- N/A -   "
3.6, 125.024, 0.00618938, NaN, NaN, NaN, 0.03601294, "- N/A -   "
3.66, 126.558, 0.00627546, NaN, NaN, NaN, 0.04089605, "- N/A -   "
3.72, 128.4448, 0.006367092, NaN, NaN, NaN, 0.04577916, "- N/A -   "
3.78, 130.214, 0.00646705, NaN, NaN, NaN, 0.0445584, "- N/A -   "
3.84, 132.337, 0.00657813, NaN, NaN, NaN, 0.04089605, "- N/A -   "
3.9, 134.342, 0.006683642, NaN, NaN, NaN, 0.0372337, "- N/A -   "
3.96, 136.229, 0.006786382, NaN, NaN, NaN, 0.0372337, "- N/A -   "
4.02, 138.47, 0.00689745, NaN, NaN, NaN, 0.03112983, "- N/A -   "
4.08, 140.24, 0.00700297, NaN, NaN, NaN, 0.0286883, "- N/A -   "
4.14, 142.1267, 0.00710015, NaN, NaN, NaN, 0.0299091, "- N/A -   "
4.2, 143.66, 0.007191787, NaN, NaN, NaN, 0.0335714, "- N/A -   "
4.26, 145.311, 0.007280643, NaN, NaN, NaN, 0.0384545, "- N/A -   "
4.32, 146.963, 0.007369499, NaN, NaN, NaN, 0.0433376, "- N/A -   "
4.38, 148.732, 0.00746946, NaN, NaN, NaN, 0.0445584, "- N/A -   "
4.44, 150.619, 0.007566649, NaN, NaN, NaN, 0.0445584, "- N/A -   "
4.5, 152.506, 0.007672165, NaN, NaN, NaN, 0.04211683, "- N/A -   "
4.56, 154.511, 0.007780459, NaN, NaN, NaN, 0.0396753, "- N/A -   "
4.62, 156.752, 0.007897083, NaN, NaN, NaN, 0.03112983, "- N/A -   "
4.68, 158.639, 0.008002599, NaN, NaN, NaN, 0.0286883, "- N/A -   "
4.74, 160.5265, 0.008099785, NaN, NaN, NaN, 0.0299091, "- N/A -   "
4.8, 162.06, 0.008185865, NaN, NaN, NaN, 0.03601294, "- N/A -   "
4.86, 163.947, 0.008288605, NaN, NaN, NaN, 0.0347922, "- N/A -   "
4.92, 165.7162, 0.008383013, NaN, NaN, NaN, 0.0372337, "- N/A -   "
4.98, 167.485, 0.0084802, NaN, NaN, NaN, 0.0384545, "- N/A -   "
5.04, 169.137, 0.008571833, NaN, NaN, NaN, 0.0433376, "- N/A -   "
5.1, 170.906, 0.008666243, NaN, NaN, NaN, 0.0445584, "- N/A -   "
5.16, 173.029, 0.008777313, NaN, NaN, NaN, 0.04089605, "- N/A -   "
5.22, 175.27, 0.008893936, NaN, NaN, NaN, 0.0323506, "- N/A -   "
5.28, 177.1571, 0.008993899, NaN, NaN, NaN, 0.0323506, "- N/A -   "
5.34, 178.808, 0.00908831, NaN, NaN, NaN, 0.03601294, "- N/A -   "
5.4, 180.578, 0.009185496, NaN, NaN, NaN, 0.03601294, "- N/A -   "
5.46, 182.583, 0.009288236, NaN, NaN, NaN, 0.0347922, "- N/A -   "
5.52, 184.706, 0.009396528, NaN, NaN, NaN, 0.0323506, "- N/A -   "
5.58, 186.475, 0.009493714, NaN, NaN, NaN, 0.0323506, "- N/A -   "
5.64, 188.244, 0.009582572, NaN, NaN, NaN, 0.0372337, "- N/A -   "
5.7, 189.777, 0.00967698, NaN, NaN, NaN, 0.0396753, "- N/A -   "
5.76, 191.901, 0.009776944, NaN, NaN, NaN, 0.0396753, "- N/A -   "
5.82, 193.7877, 0.009879684, NaN, NaN, NaN, 0.0384545, "- N/A -   "
5.88, 195.7928, 0.009982424, NaN, NaN, NaN, 0.0372337, "- N/A -   "
5.94, 197.68, 0.01007961, NaN, NaN, NaN, 0.0384545, "- N/A -   "
6, 199.567, 0.01018235, NaN, NaN, NaN, 0.0384545, "- N/A -   "
6.06, 201.69, 0.0102879, NaN, NaN, NaN, 0.0347922, "- N/A -   "
6.12, 203.577, 0.0103906, NaN, NaN, NaN, 0.0335714, "- N/A -   "
6.18, 205.7, 0.0104906, NaN, NaN, NaN, 0.0335714, "- N/A -   "
6.24, 207.588, 0.0105933, NaN, NaN, NaN, 0.0335714, "- N/A -   "
6.3, 209.593, 0.010696, NaN, NaN, NaN, 0.03112983, "- N/A -   "
6.36, 211.362, 0.0107849, NaN, NaN, NaN, 0.03601294, "- N/A -   "
6.42, 213.131, 0.0108793, NaN, NaN, NaN, 0.0384545, "- N/A -   "
6.48, 214.9, 0.0109709, NaN, NaN, NaN, 0.04211683, "- N/A -   "
6.54, 216.787, 0.0110681, NaN, NaN, NaN, 0.0433376, "- N/A -   "
6.6, 219.028, 0.0111792, NaN, NaN, NaN, 0.0384545, "- N/A -   "
6.66, 221.269, 0.0112903, NaN, NaN, NaN, 0.0335714, "- N/A -   "
6.72, 223.3925, 0.0113902, NaN, NaN, NaN, 0.0335714, "- N/A -   "
6.78, 225.28, 0.0114874, NaN, NaN, NaN, 0.0347922, "- N/A -   "
6.84, 227.403, 0.0115957, NaN, NaN, NaN, 0.0323506, "- N/A -   "
6.9, 229.526, 0.0117012, NaN, NaN, NaN, 0.0286883, "- N/A -   "
6.96, 231.413, 0.0117929, NaN, NaN, NaN, 0.0323506, "- N/A -   "
7.02, 233.182, 0.0118845, NaN, NaN, NaN, 0.03601294, "- N/A -   "
7.08, 234.833, 0.0119706, NaN, NaN, NaN, 0.04211683, "- N/A -   "
7.14, 236.721, 0.01206221, NaN, NaN, NaN, 0.04577916, "- N/A -   "
7.2, 238.844, 0.0121649, NaN, NaN, NaN, 0.0445584, "- N/A -   "
7.26, 241.203, 0.0122788, NaN, NaN, NaN, 0.0396753, "- N/A -   "
7.32, 243.443, 0.01238709, NaN, NaN, NaN, 0.03601294, "- N/A -   "
7.38, 245.446, 0.01248983, NaN, NaN, NaN, 0.0347922, "- N/A -   "
7.44, 247.92, 0.0126009, NaN, NaN, NaN, 0.0299091, "- N/A -   "
7.5, 249.805, 0.0127009, NaN, NaN, NaN, 0.0286883, "- N/A -   "
7.56, 251.926, 0.0128008, NaN, NaN, NaN, 0.0286883, "- N/A -   "
7.62, 253.576, 0.0128897, NaN, NaN, NaN, 0.0335714, "- N/A -   "
7.68, 255.579, 0.0129813, NaN, NaN, NaN, 0.0372337, "- N/A -   "
7.74, 257.346, 0.0130702, NaN, NaN, NaN, 0.0433376, "- N/A -   "
7.8, 259.349, 0.0131674, NaN, NaN, NaN, 0.0433376, "- N/A -   "
7.86, 261.588, 0.0132701, NaN, NaN, NaN, 0.0433376, "- N/A -   "
7.92, 263.8265, 0.0133756, NaN, NaN, NaN, 0.04089605, "- N/A -   "
7.96, 265.476, 0.0134506, NaN, NaN, NaN, 0.03601294, "- N/A -   "
7.97, 265.83, 0.01347, NaN, NaN, NaN, 0.0347922, "- N/A -   "
7.98, 266.301, 0.0134895, NaN, NaN, NaN, 0.0335714, "- N/A -   "
8.05, 269.011, 0.01362, NaN, NaN, NaN, 0.0274675, "- N/A -   "
8.12, 271.25, 0.0137283, NaN, NaN, NaN, 0.0323506, "- N/A -   "
8.19, 273.7239, 0.0138449, NaN, NaN, NaN, 0.0323506, "- N/A -   "
8.26, 276.08, 0.013956, NaN, NaN, NaN, 0.03601294, "- N/A -   "
8.33, 278.555, 0.014067, NaN, NaN, NaN, 0.0384545, "- N/A -   "
8.4, 280.7935, 0.0141753, NaN, NaN, NaN, 0.04089605, "- N/A -   "
8.47, 283.15, 0.0142864, NaN, NaN, NaN, 0.0445584, "- N/A -   "
8.54, 285.7422, 0.0144002, NaN, NaN, NaN, 0.0445584, "- N/A -   "
8.61, 288.806, 0.0145391, NaN, NaN, NaN, 0.03601294, "- N/A -   "
8.68, 291.633, 0.0146668, NaN, NaN, NaN, 0.03112983, "- N/A -   "
8.75, 293.754, 0.0147779, NaN, NaN, NaN, 0.0335714, "- N/A -   "
8.82, 296.2287, 0.0148862, NaN, NaN, NaN, 0.03601294, "- N/A -   "
8.89, 298.821, 0.0150056, NaN, NaN, NaN, 0.03601294, "- N/A -   "
8.96, 301.413, 0.015125, NaN, NaN, NaN, 0.0335714, "- N/A -   "
9.03, 303.77, 0.015236, NaN, NaN, NaN, 0.03601294, "- N/A -   "
9.1, 306.1261, 0.0153388, NaN, NaN, NaN, 0.04211683, "- N/A -   "
9.17, 308.718, 0.0154554, NaN, NaN, NaN, 0.04211683, "- N/A -   "
9.24, 311.31, 0.0155776, NaN, NaN, NaN, 0.0396753, "- N/A -   "
9.31, 314.138, 0.0157025, NaN, NaN, NaN, 0.03601294, "- N/A -   "
9.38, 316.73, 0.0158219, NaN, NaN, NaN, 0.03601294, "- N/A -   "
9.45, 319.44, 0.0159386, NaN, NaN, NaN, 0.0347922, "- N/A -   "
9.52, 322.033, 0.016058, NaN, NaN, NaN, 0.0335714, "- N/A -   "
9.59, 324.625, 0.0161774, NaN, NaN, NaN, 0.0335714, "- N/A -   "
9.66, 326.9813, 0.01628565, NaN, NaN, NaN, 0.03601294, "- N/A -   "
9.73, 329.573, 0.0164023, NaN, NaN, NaN, 0.03601294, "- N/A -   "
9.8, 332.048, 0.0165133, NaN, NaN, NaN, 0.0384545, "- N/A -   "
9.87, 334.5222, 0.0166244, NaN, NaN, NaN, 0.04089605, "- N/A -   "
9.94, 336.997, 0.0167355, NaN, NaN, NaN, 0.0445584, "- N/A -   "
10.01, 339.942, 0.0168604, NaN, NaN, NaN, 0.04089605, "- N/A -   "
10.08, 342.888, 0.0169909, NaN, NaN, NaN, 0.0335714, "- N/A -   "
10.15, 345.48, 0.0171103, NaN, NaN, NaN, 0.0323506, "- N/A -   "
10.22, 348.19, 0.0172297, NaN, NaN, NaN, 0.0323506, "- N/A -   "
10.29, 351.136, 0.0173547, NaN, NaN, NaN, 0.0274675, "- N/A -   "
10.36, 353.4922, 0.017463, NaN, NaN, NaN, 0.03112983, "- N/A -   "
10.43, 355.7309, 0.01756851, NaN, NaN, NaN, 0.03601294, "- N/A -   "
10.5, 357.97, 0.0176685, NaN, NaN, NaN, 0.0433376, "- N/A -   "
10.57, 360.326, 0.0177712, NaN, NaN, NaN, 0.0494415, "- N/A -   "
10.64, 363.3896, 0.0179045, NaN, NaN, NaN, 0.04211683, "- N/A -   "
10.71, 366.453, 0.0180378, NaN, NaN, NaN, 0.03601294, "- N/A -   "
10.78, 369.281, 0.01816, NaN, NaN, NaN, 0.0323506, "- N/A -   "
10.85, 371.991, 0.0182794, NaN, NaN, NaN, 0.03112983, "- N/A -   "
10.92, 374.8187, 0.0184015, NaN, NaN, NaN, 0.0299091, "- N/A -   "
10.99, 377.4109, 0.0185154, NaN, NaN, NaN, 0.0299091, "- N/A -   "
11.06, 379.885, 0.0186237, NaN, NaN, NaN, 0.0347922, "- N/A -   "
11.13, 382.124, 0.0187264, NaN, NaN, NaN, 0.0396753, "- N/A -   "
11.2, 384.834, 0.018843, NaN, NaN, NaN, 0.0396753, "- N/A -   "
11.27, 387.426, 0.0189569, NaN, NaN, NaN, 0.04211683, "- N/A -   "
11.34, 390.1361, 0.0190735, NaN, NaN, NaN, 0.04089605, "- N/A -   "
11.41, 392.8461, 0.0191929, NaN, NaN, NaN, 0.0396753, "- N/A -   "
11.48, 395.792, 0.01932064, NaN, NaN, NaN, 0.03601294, "- N/A -   "
11.55, 398.502, 0.0194345, NaN, NaN, NaN, 0.03601294, "- N/A -   "
11.62, 401.447, 0.0195594, NaN, NaN, NaN, 0.0323506, "- N/A -   "
11.69, 404.1574, 0.0196761, NaN, NaN, NaN, 0.0323506, "- N/A -   "
11.76, 406.8674, 0.01978991, NaN, NaN, NaN, 0.0335714, "- N/A -   "
11.83, 409.2239, 0.0198954, NaN, NaN, NaN, 0.0384545, "- N/A -   "
11.9, 411.58, 0.0200009, NaN, NaN, NaN, 0.0433376, "- N/A -   "
11.97, 414.408, 0.0201176, NaN, NaN, NaN, 0.0433376, "- N/A -   "
12.04, 417.825, 0.0202564, NaN, NaN, NaN, 0.0335714, "- N/A -   "
12.11, 420.771, 0.0203841, NaN, NaN, NaN, 0.0286883, "- N/A -   "
12.18, 423.245, 0.0204924, NaN, NaN, NaN, 0.0323506, "- N/A -   "
12.25, 425.72, 0.0206007, NaN, NaN, NaN, 0.0372337, "- N/A -   "
12.32, 428.783, 0.0207229, NaN, NaN, NaN, 0.0335714, "- N/A -   "
12.39, 431.611, 0.0208451, NaN, NaN, NaN, 0.0323506, "- N/A -   "
12.46, 433.9674, 0.020945, NaN, NaN, NaN, 0.0384545, "- N/A -   "
12.53, 436.56, 0.0210533, NaN, NaN, NaN, 0.04211683, "- N/A -   "
12.6, 439.5052, 0.0211727, NaN, NaN, NaN, 0.04211683, "- N/A -   "
12.67, 442.333, 0.0212977, NaN, NaN, NaN, 0.0396753, "- N/A -   "
12.74, 445.043, 0.0214171, NaN, NaN, NaN, 0.0384545, "- N/A -   "
12.81, 447.871, 0.02153371, NaN, NaN, NaN, 0.0372337, "- N/A -   "
12.88, 450.8165, 0.0216587, NaN, NaN, NaN, 0.0335714, "- N/A -   "
12.95, 453.762, 0.0217808, NaN, NaN, NaN, 0.03112983, "- N/A -   "
13.02, 456.59, 0.0218975, NaN, NaN, NaN, 0.0323506, "- N/A -   "
13.09, 459.182, 0.0220085, NaN, NaN, NaN, 0.0335714, "- N/A -   "
13.16, 461.774, 0.0221196, NaN, NaN, NaN, 0.03601294, "- N/A -   "
13.23, 464.131, 0.0222251, NaN, NaN, NaN, 0.04089605, "- N/A -   "
13.3, 466.9587, 0.0223362, NaN, NaN, NaN, 0.0445584, "- N/A -   "
13.37, 469.551, 0.0224445, NaN, NaN, NaN, 0.04699994, "- N/A -   "
13.44, 472.85, 0.0225778, NaN, NaN, NaN, 0.0396753, "- N/A -   "
13.51, 475.913, 0.0227111, NaN, NaN, NaN, 0.0335714, "- N/A -   "
13.58, 478.859, 0.0228277, NaN, NaN, NaN, 0.0323506, "- N/A -   "
13.65, 481.4513, 0.0229387, NaN, NaN, NaN, 0.0347922, "- N/A -   "
13.72, 484.515, 0.0230665, NaN, NaN, NaN, 0.0299091, "- N/A -   "
13.79, 487.343, 0.0231831, NaN, NaN, NaN, 0.03112983, "- N/A -   "
13.86, 489.699, 0.0232775, NaN, NaN, NaN, 0.0396753, "- N/A -   "
13.93, 492.056, 0.023383, NaN, NaN, NaN, 0.04577916, "- N/A -   "
14, 495.0013, 0.0234997, NaN, NaN, NaN, 0.04577916, "- N/A -   "
14.07, 498.183, 0.0236302, NaN, NaN, NaN, 0.0396753, "- N/A -   "
14.14, 501.364, 0.0237523, NaN, NaN, NaN, 0.03601294, "- N/A -   "
14.21, 504.0739, 0.0238717, NaN, NaN, NaN, 0.03601294, "- N/A -   "
14.28, 507.255, 0.0240022, NaN, NaN, NaN, 0.0299091, "- N/A -   "
14.35, 510.083, 0.0241189, NaN, NaN, NaN, 0.0286883, "- N/A -   "
14.42, 512.793, 0.0242327, NaN, NaN, NaN, 0.0299091, "- N/A -   "
14.49, 515.274, 0.0243327, NaN, NaN, NaN, 0.0372337, "- N/A -   "
14.56, 517.7581, 0.0244382, NaN, NaN, NaN, 0.04211683, "- N/A -   "
[...]
19.09, 707.007, 0.0320021, NaN, NaN, NaN, 0.03601294, "- N/A -   "
19.16, 710.3193, 0.03212702, NaN, NaN, NaN, 0.0323506, "- N/A -   "
19.23, 713.04, 0.03223809, NaN, NaN, NaN, 0.03601294, "- N/A -   "
19.3, 715.6419, 0.0323464, NaN, NaN, NaN, 0.0396753, "- N/A -   "
19.37, 718.4807, 0.0324575, NaN, NaN, NaN, 0.04211683, "- N/A -   "
19.44, 721.556, 0.0325741, NaN, NaN, NaN, 0.04089605, "- N/A -   "
19.51, 724.7496, 0.03269903, NaN, NaN, NaN, 0.0372337, "- N/A -   "
19.58, 727.8249, 0.0328157, NaN, NaN, NaN, 0.0384545, "- N/A -   "
19.65, 730.782, 0.0329323, NaN, NaN, NaN, 0.0372337, "- N/A -   "
19.72, 733.9755, 0.03306, NaN, NaN, NaN, 0.0323506, "- N/A -   "
19.79, 737.051, 0.0331794, NaN, NaN, NaN, 0.03112983, "- N/A -   "
19.86, 740.1261, 0.03329603, NaN, NaN, NaN, 0.03112983, "- N/A -   "
19.93, 742.847, 0.03340988, NaN, NaN, NaN, 0.0323506, "- N/A -   "
20, 745.6853, 0.03352095, NaN, NaN, NaN, 0.0347922, "- N/A -   "
20.07, 748.2875, 0.0336237, NaN, NaN, NaN, 0.04089605, "- N/A -   "
20.14, 751.1262, 0.0337348, NaN, NaN, NaN, 0.0433376, "- N/A -   "
20.21, 754.0832, 0.0338486, NaN, NaN, NaN, 0.0445584, "- N/A -   "
20.28, 757.6317, 0.03398189, NaN, NaN, NaN, 0.0372337, "- N/A -   "
20.35, 760.944, 0.0341068, NaN, NaN, NaN, 0.0347922, "- N/A -   "
20.42, 763.9006, 0.0342262, NaN, NaN, NaN, 0.0335714, "- N/A -   "
20.49, 767.0941, 0.0343456, NaN, NaN, NaN, 0.03112983, "- N/A -   "
20.56, 770.051, 0.03446782, NaN, NaN, NaN, 0.0286883, "- N/A -   "
20.63, 772.7716, 0.03457334, NaN, NaN, NaN, 0.0335714, "- N/A -   "
20.7, 775.2555, 0.03467608, NaN, NaN, NaN, 0.0396753, "- N/A -   "
20.77, 777.858, 0.0347788, NaN, NaN, NaN, 0.04577916, "- N/A -   "
20.84, 780.8147, 0.03489544, NaN, NaN, NaN, 0.04577916, "- N/A -   "
20.91, 784.2449, 0.03502317, NaN, NaN, NaN, 0.04089605, "- N/A -   "
20.98, 787.7933, 0.0351592, NaN, NaN, NaN, 0.0323506, "- N/A -   "
21.05, 790.8685, 0.03528141, NaN, NaN, NaN, 0.0299091, "- N/A -   "
21.12, 794.0622, 0.0354036, NaN, NaN, NaN, 0.0274675, "- N/A -   "
21.19, 797.0192, 0.03552021, NaN, NaN, NaN, 0.0274675, "- N/A -   "
21.26, 799.8579, 0.03563128, NaN, NaN, NaN, 0.0299091, "- N/A -   "
21.33, 802.2236, 0.03573124, NaN, NaN, NaN, 0.0372337, "- N/A -   "
21.4, 804.944, 0.03583676, NaN, NaN, NaN, 0.04211683, "- N/A -   "
21.47, 808.0193, 0.0359534, NaN, NaN, NaN, 0.0433376, "- N/A -   "
21.54, 810.9763, 0.03606723, NaN, NaN, NaN, 0.0433376, "- N/A -   "
21.61, 814.17, 0.0361894, NaN, NaN, NaN, 0.04089605, "- N/A -   "
21.68, 817.7183, 0.0363282, NaN, NaN, NaN, 0.0335714, "- N/A -   "
21.75, 821.0302, 0.0364532, NaN, NaN, NaN, 0.0286883, "- N/A -   "
21.82, 823.7507, 0.0365615, NaN, NaN, NaN, 0.0323506, "- N/A -   "
21.89, 826.708, 0.0366753, NaN, NaN, NaN, 0.0335714, "- N/A -   "
21.96, 829.4281, 0.0367836, NaN, NaN, NaN, 0.0372337, "- N/A -   "
22.03, 832.267, 0.0368947, NaN, NaN, NaN, 0.0396753, "- N/A -   "
22.1, 835.2239, 0.037003, NaN, NaN, NaN, 0.0433376, "- N/A -   "
22.17, 838.0626, 0.0371141, NaN, NaN, NaN, 0.04577916, "- N/A -   "
22.24, 841.3745, 0.0372418, NaN, NaN, NaN, 0.04089605, "- N/A -   "
22.31, 844.9229, 0.0373779, NaN, NaN, NaN, 0.0323506, "- N/A -   "
22.38, 847.88, 0.0374973, NaN, NaN, NaN, 0.03112983, "- N/A -   "
22.45, 850.7187, 0.03760555, NaN, NaN, NaN, 0.0347922, "- N/A -   "
22.52, 853.794, 0.0377222, NaN, NaN, NaN, 0.0347922, "- N/A -   "
22.59, 857.1059, 0.0378471, NaN, NaN, NaN, 0.03112983, "- N/A -   "
22.66, 859.8263, 0.0379554, NaN, NaN, NaN, 0.0347922, "- N/A -   "
22.73, 862.4285, 0.0380609, NaN, NaN, NaN, 0.0396753, "- N/A -   "
22.8, 865.3855, 0.0381748, NaN, NaN, NaN, 0.04089605, "- N/A -   "
22.87, 868.4608, 0.0382942, NaN, NaN, NaN, 0.04089605, "- N/A -   "
22.94, 871.5361, 0.0384136, NaN, NaN, NaN, 0.0396753, "- N/A -   "
23.01, 874.73, 0.03853021, NaN, NaN, NaN, 0.0384545, "- N/A -   "
23.08, 877.5685, 0.0386468, NaN, NaN, NaN, 0.0396753, "- N/A -   "
23.15, 880.9986, 0.03877456, NaN, NaN, NaN, 0.0347922, "- N/A -   "
23.22, 883.9556, 0.0388912, NaN, NaN, NaN, 0.0335714, "- N/A -   "
23.29, 886.9126, 0.03900781, NaN, NaN, NaN, 0.0335714, "- N/A -   "
23.36, 889.9879, 0.03912721, NaN, NaN, NaN, 0.0323506, "- N/A -   "
23.43, 892.7084, 0.0392327, NaN, NaN, NaN, 0.0372337, "- N/A -   "
23.5, 895.6654, 0.03934935, NaN, NaN, NaN, 0.0372337, "- N/A -   "
23.57, 898.386, 0.03945209, NaN, NaN, NaN, 0.0445584, "- N/A -   "
23.64, 901.4612, 0.03957149, NaN, NaN, NaN, 0.04211683, "- N/A -   "
23.71, 905.128, 0.0397103, NaN, NaN, NaN, 0.0335714, "- N/A -   "
23.78, 908.2031, 0.039827, NaN, NaN, NaN, 0.0323506, "- N/A -   "
23.85, 911.16, 0.0399436, NaN, NaN, NaN, 0.0323506, "- N/A -   "
23.92, 914.472, 0.0400685, NaN, NaN, NaN, 0.0286883, "- N/A -   "
23.99, 917.4291, 0.0401852, NaN, NaN, NaN, 0.0286883, "- N/A -   "
24.06, 920.031, 0.04029067, NaN, NaN, NaN, 0.0335714, "- N/A -   "
24.13, 922.6334, 0.04039063, NaN, NaN, NaN, 0.04211683, "- N/A -   "
24.2, 925.2356, 0.04049615, NaN, NaN, NaN, 0.04577916, "- N/A -   "
24.27, 928.1926, 0.0406155, NaN, NaN, NaN, 0.04577916, "- N/A -   "
24.34, 931.741, 0.0407461, NaN, NaN, NaN, 0.0384545, "- N/A -   "
24.41, 934.8164, 0.0408655, NaN, NaN, NaN, 0.0372337, "- N/A -   "
24.48, 938.01, 0.04099041, NaN, NaN, NaN, 0.0335714, "- N/A -   "
24.55, 941.3218, 0.04111814, NaN, NaN, NaN, 0.0299091, "- N/A -   "
24.62, 944.2788, 0.04123476, NaN, NaN, NaN, 0.0286883, "- N/A -   "
24.69, 947.118, 0.04134583, NaN, NaN, NaN, 0.03112983, "- N/A -   "
24.76, 949.483, 0.0414402, NaN, NaN, NaN, 0.04089605, "- N/A -   "
24.83, 951.9671, 0.04154298, NaN, NaN, NaN, 0.04699994, "- N/A -   "
24.9, 955.279, 0.0416679, NaN, NaN, NaN, 0.0433376, "- N/A -   "
24.97, 958.473, 0.0417901, NaN, NaN, NaN, 0.04211683, "- N/A -   "
25.04, 961.7844, 0.0419151, NaN, NaN, NaN, 0.0372337, "- N/A -   "
25.11, 965.569, 0.04205668, NaN, NaN, NaN, 0.0262467, "- N/A -   "
25.18, 968.6447, 0.04217608, NaN, NaN, NaN, 0.0250259, "- N/A -   "
25.25, 971.2469, 0.0422816, NaN, NaN, NaN, 0.0299091, "- N/A -   "
25.32, 974.086, 0.0423927, NaN, NaN, NaN, 0.0335714, "- N/A -   "
25.39, 976.9244, 0.0425065, NaN, NaN, NaN, 0.0347922, "- N/A -   "
25.46, 979.881, 0.04261481, NaN, NaN, NaN, 0.0372337, "- N/A -   "
25.53, 982.6018, 0.0427203, NaN, NaN, NaN, 0.04211683, "- N/A -   "
25.6, 985.322, 0.0428314, NaN, NaN, NaN, 0.0445584, "- N/A -   "
25.67, 988.989, 0.0429675, NaN, NaN, NaN, 0.0372337, "- N/A -   "
25.74, 992.3009, 0.04309241, NaN, NaN, NaN, 0.0335714, "- N/A -   "
25.81, 995.1396, 0.04320626, NaN, NaN, NaN, 0.0347922, "- N/A -   "
25.88, 998.0966, 0.04331455, NaN, NaN, NaN, 0.0372337, "- N/A -   "
25.95, 1001.05, 0.04343673, NaN, NaN, NaN, 0.0347922, "- N/A -   "
26.02, 1004.37, 0.0435617, NaN, NaN, NaN, 0.0323506, "- N/A -   "
26.09, 1007.32, 0.0436755, NaN, NaN, NaN, 0.0323506, "- N/A -   "
26.16, 1009.69, 0.0437755, NaN, NaN, NaN, 0.0396753, "- N/A -   "
26.23, 1012.76, 0.0438893, NaN, NaN, NaN, 0.04211683, "- N/A -   "
26.3, 1016.1, 0.04401429, NaN, NaN, NaN, 0.0384545, "- N/A -   "
26.37, 1019.2, 0.04413369, NaN, NaN, NaN, 0.0384545, "- N/A -   "
26.44, 1022.18, 0.0442503, NaN, NaN, NaN, 0.0372337, "- N/A -   "
26.51, 1025.4, 0.04437527, NaN, NaN, NaN, 0.0335714, "- N/A -   "
26.58, 1028.74, 0.04449745, NaN, NaN, NaN, 0.03112983, "- N/A -   "
26.65, 1031.6, 0.04461129, NaN, NaN, NaN, 0.0335714, "- N/A -   "
26.72, 1034.47, 0.0447224, NaN, NaN, NaN, 0.0347922, "- N/A -   "
26.79, 1037.69, 0.0448418, NaN, NaN, NaN, 0.0335714, "- N/A -   "
26.86, 1040.428, 0.0449445, NaN, NaN, NaN, 0.0396753, "- N/A -   "
26.93, 1043.05, 0.0450528, NaN, NaN, NaN, 0.0433376, "- N/A -   "
27, 1046.03, 0.0451639, NaN, NaN, NaN, 0.04577916, "- N/A -   "
27.07, 1049.37, 0.04528882, NaN, NaN, NaN, 0.0433376, "- N/A -   "
27.14, 1053.07, 0.0454249, NaN, NaN, NaN, 0.0347922, "- N/A -   "
27.21, 1056.17, 0.0455415, NaN, NaN, NaN, 0.0335714, "- N/A -   "
27.28, 1059.03, 0.0456526, NaN, NaN, NaN, 0.03601294, "- N/A -   "
27.35, 1062.37, 0.04578031, NaN, NaN, NaN, 0.0323506, "- N/A -   "
27.42, 1065.35, 0.0458942, NaN, NaN, NaN, 0.0335714, "- N/A -   "
27.49, 1067.98, 0.04599967, NaN, NaN, NaN, 0.0372337, "- N/A -   "
27.56, 1070.6, 0.0461052, NaN, NaN, NaN, 0.0433376, "- N/A -   "
27.63, 1073.22, 0.0462079, NaN, NaN, NaN, 0.0482207, "- N/A -   "
27.7, 1077.04, 0.046344, NaN, NaN, NaN, 0.0396753, "- N/A -   "
27.77, 1080.38, 0.04646894, NaN, NaN, NaN, 0.03601294, "- N/A -   "
27.84, 1083.72, 0.0465967, NaN, NaN, NaN, 0.03112983, "- N/A -   "
27.91, 1086.94, 0.0467188, NaN, NaN, NaN, 0.0286883, "- N/A -   "
27.98, 1090.04, 0.0468382, NaN, NaN, NaN, 0.0274675, "- N/A -   "
28.042, 1092.66, 0.0469382, NaN, NaN, NaN, 0.0299091, "- N/A -   "