File: 2_Tensile_Data/Hamel_ForceTest_Bolt10_Test7.csv
Time, Load (lb), Position (in), AxialStrain (in), TransverseStrain (in), Auxiliary (), Control Out (V), Stress (psi)
0.0, 17.5742, 0.0, NaN, NaN, NaN, -0.006714277, "- N/A -   "
0.01, 17.6921, 2.776752E-6, NaN, NaN, NaN, -6.103888E-4, "- N/A -   "
0.02, 17.6921, 2.776752E-6, NaN, NaN, NaN, 0.006714277, "- N/A -   "
0.03, 17.5742, 2.776752E-6, NaN, NaN, NaN, 0.0177013, "- N/A -   "
0.04, 17.6921, 5.553504E-6, NaN, NaN, NaN, 0.03601294, "- N/A -   "
0.05, 17.6921, 1.38838e-05, NaN, NaN, NaN, 0.05188305, "- N/A -   "
0.06, 17.928, 2.49908e-05, NaN, NaN, NaN, 0.06653238, "- N/A -   "
0.07, 18.16391, 4.16513e-05, NaN, NaN, NaN, 0.0799609, "- N/A -   "
0.08, 18.7536, 6.108854E-5, NaN, NaN, NaN, 0.0897272, "- N/A -   "
0.09, 19.2254, 8.607931E-5, NaN, NaN, NaN, 0.09949338, "- N/A -   "
0.1, 19.8152, 0.000113847, NaN, NaN, NaN, 0.105597, "- N/A -   "
0.11, 20.4049, 0.000144391, NaN, NaN, NaN, 0.1092596, "- N/A -   "
0.12, 21.1126, 0.000174935, NaN, NaN, NaN, 0.103156, "- N/A -   "
0.13, 21.7023, 0.00020548, NaN, NaN, NaN, 0.09705182, "- N/A -   "
0.14, 22.1741, 0.000233247, NaN, NaN, NaN, 0.09216871, "- N/A -   "
0.15, 22.6459, 0.000261015, NaN, NaN, NaN, 0.08850638, "- N/A -   "
0.16, 23.2357, 0.000286005, NaN, NaN, NaN, 0.08362327, "- N/A -   "
0.17, 23.82539, 3.109962E-4, NaN, NaN, NaN, 0.0799609, "- N/A -   "
0.18, 24.29718, 0.000335987, NaN, NaN, NaN, 0.07751938, "- N/A -   "
0.19, 24.65102, 0.000358201, NaN, NaN, NaN, 0.0750778, "- N/A -   "
0.2, 25.1228, 0.000377638, NaN, NaN, NaN, 0.07263627, "- N/A -   "
0.21, 25.5946, 0.000397076, NaN, NaN, NaN, 0.07141549, "- N/A -   "
0.22, 25.8305, 0.000416513, NaN, NaN, NaN, 0.0701947, "- N/A -   "
0.23, 26.3023, 0.00043595, NaN, NaN, NaN, 0.0689739, "- N/A -   "
0.24, 26.6561, 0.000458164, NaN, NaN, NaN, 0.06775316, "- N/A -   "
0.25, 27.1279, 4.776013E-4, NaN, NaN, NaN, 0.0653116, "- N/A -   "
0.26, 27.4818, 0.000499815, NaN, NaN, NaN, 0.0640908, "- N/A -   "
0.27, 27.8356, 5.192526E-4, NaN, NaN, NaN, 0.06164927, "- N/A -   "
0.28, 28.3074, 5.414666E-4, NaN, NaN, NaN, 0.0592077, "- N/A -   "
0.29, 28.7792, 5.636806E-4, NaN, NaN, NaN, 0.05676616, "- N/A -   "
0.3, 29.133, 5.831179E-4, NaN, NaN, NaN, 0.0555454, "- N/A -   "
0.31, 29.4869, 0.000608109, NaN, NaN, NaN, 0.0531038, "- N/A -   "
0.32, 29.84071, 0.000630323, NaN, NaN, NaN, 0.0494415, "- N/A -   "
0.33, 30.4304, 0.000655313, NaN, NaN, NaN, 0.04699994, "- N/A -   "
0.34, 31.0202, 6.747507E-4, NaN, NaN, NaN, 0.0445584, "- N/A -   "
0.35, 31.2561, 6.969647E-4, NaN, NaN, NaN, 0.0433376, "- N/A -   "
0.36, 31.72787, 0.000716402, NaN, NaN, NaN, 0.04089605, "- N/A -   "
0.37, 32.1997, 0.000735839, NaN, NaN, NaN, 0.0396753, "- N/A -   "
0.38, 32.5535, 0.0007525, NaN, NaN, NaN, 0.0396753, "- N/A -   "
0.39, 32.7894, 7.71937E-4, NaN, NaN, NaN, 0.0384545, "- N/A -   "
0.4, 33.1432, 0.000791374, NaN, NaN, NaN, 0.0372337, "- N/A -   "
0.45, 34.7945, 8.774536E-4, NaN, NaN, NaN, 0.03601294, "- N/A -   "
0.5, 36.5637, 0.000960756, NaN, NaN, NaN, 0.03601294, "- N/A -   "
0.55, 38.3329, 0.00105239, NaN, NaN, NaN, 0.0335714, "- N/A -   "
0.6, 39.98419, 0.00113847, NaN, NaN, NaN, 0.03112983, "- N/A -   "
0.65, 41.51751, 0.00121622, NaN, NaN, NaN, 0.0335714, "- N/A -   "
0.7, 43.0508, 0.00128841, NaN, NaN, NaN, 0.0384545, "- N/A -   "
0.75, 44.34825, 0.00136061, NaN, NaN, NaN, 0.0433376, "- N/A -   "
0.8, 45.76362, 0.00143558, NaN, NaN, NaN, 0.0482207, "- N/A -   "
0.85, 47.5328, 0.00151611, NaN, NaN, NaN, 0.0482207, "- N/A -   "
0.9, 49.5379, 0.00161329, NaN, NaN, NaN, 0.0433376, "- N/A -   "
0.95, 51.543, 0.0017077, NaN, NaN, NaN, 0.0372337, "- N/A -   "
1, 53.19431, 0.00179656, NaN, NaN, NaN, 0.0347922, "- N/A -   "
1.05, 54.9635, 0.001879861, NaN, NaN, NaN, 0.0347922, "- N/A -   "
1.1, 56.73273, 0.001968717, NaN, NaN, NaN, 0.0323506, "- N/A -   "
1.15, 58.6199, 0.00206313, NaN, NaN, NaN, 0.0274675, "- N/A -   "
1.2, 60.3891, 0.00214643, NaN, NaN, NaN, 0.0286883, "- N/A -   "
1.25, 62.0404, 0.002226955, NaN, NaN, NaN, 0.0286883, "- N/A -   "
1.3, 63.45574, 0.00229915, NaN, NaN, NaN, 0.0335714, "- N/A -   "
1.35, 64.87111, 0.002371346, NaN, NaN, NaN, 0.0396753, "- N/A -   "
1.4, 66.40443, 0.00244354, NaN, NaN, NaN, 0.0433376, "- N/A -   "
1.45, 68.05569, 0.00252684, NaN, NaN, NaN, 0.0445584, "- N/A -   "
1.5, 69.8249, 0.00261015, NaN, NaN, NaN, 0.0433376, "- N/A -   "
1.55, 71.3582, 0.0026879, NaN, NaN, NaN, 0.04577916, "- N/A -   "
1.6, 73.2454, 0.00277398, NaN, NaN, NaN, 0.0445584, "- N/A -   "
1.65, 75.0146, 0.00286838, NaN, NaN, NaN, 0.0396753, "- N/A -   "
1.7, 77.13765, 0.00296835, NaN, NaN, NaN, 0.0335714, "- N/A -   "
1.75, 79.0248, 0.003057204, NaN, NaN, NaN, 0.0299091, "- N/A -   "
1.8, 80.67606, 0.003143283, NaN, NaN, NaN, 0.0299091, "- N/A -   "
1.85, 82.32734, 0.00322103, NaN, NaN, NaN, 0.03112983, "- N/A -   "
1.9, 83.74271, 0.003296, NaN, NaN, NaN, 0.0347922, "- N/A -   "
1.95, 85.51192, 0.00337653, NaN, NaN, NaN, 0.0372337, "- N/A -   "
2, 87.16318, 0.00345706, NaN, NaN, NaN, 0.0372337, "- N/A -   "
2.05, 88.9324, 0.00354036, NaN, NaN, NaN, 0.0372337, "- N/A -   "
2.1, 90.11186, 0.00361255, NaN, NaN, NaN, 0.04211683, "- N/A -   "
2.15, 91.88108, 0.0036903, NaN, NaN, NaN, 0.0445584, "- N/A -   "
2.2, 93.53234, 0.003770829, NaN, NaN, NaN, 0.04577916, "- N/A -   "
2.25, 95.30156, 0.00386524, NaN, NaN, NaN, 0.04089605, "- N/A -   "
2.3, 97.30666, 0.003965202, NaN, NaN, NaN, 0.0347922, "- N/A -   "
2.35, 99.1938, 0.00405961, NaN, NaN, NaN, 0.0286883, "- N/A -   "
2.4, 100.845, 0.004140137, NaN, NaN, NaN, 0.0299091, "- N/A -   "
2.45, 102.26, 0.004215109, NaN, NaN, NaN, 0.0335714, "- N/A -   "
2.5, 103.794, 0.004298412, NaN, NaN, NaN, 0.0347922, "- N/A -   "
2.55, 105.327, 0.00438171, NaN, NaN, NaN, 0.0347922, "- N/A -   "
2.6, 107.0963, 0.00447057, NaN, NaN, NaN, 0.0323506, "- N/A -   "
2.65, 108.63, 0.00454832, NaN, NaN, NaN, 0.0335714, "- N/A -   "
2.7, 110.163, 0.00462607, NaN, NaN, NaN, 0.03601294, "- N/A -   "
2.75, 111.46, 0.004701041, NaN, NaN, NaN, 0.04089605, "- N/A -   "
2.8, 112.876, 0.00477879, NaN, NaN, NaN, 0.04211683, "- N/A -   "
2.85, 114.763, 0.0048732, NaN, NaN, NaN, 0.0372337, "- N/A -   "
2.9, 116.414, 0.004956502, NaN, NaN, NaN, 0.0372337, "- N/A -   "
2.95, 117.83, 0.00504258, NaN, NaN, NaN, 0.03601294, "- N/A -   "
3, 119.481, 0.005125884, NaN, NaN, NaN, 0.03601294, "- N/A -   "
3.05, 121.132, 0.00521474, NaN, NaN, NaN, 0.0347922, "- N/A -   "
3.1, 122.547, 0.00529804, NaN, NaN, NaN, 0.0335714, "- N/A -   "
3.15, 124.081, 0.00538412, NaN, NaN, NaN, 0.0323506, "- N/A -   "
3.2, 125.614, 0.00546742, NaN, NaN, NaN, 0.0323506, "- N/A -   "
3.25, 126.911, 0.00554795, NaN, NaN, NaN, 0.0347922, "- N/A -   "
3.3, 128.209, 0.005628476, NaN, NaN, NaN, 0.0347922, "- N/A -   "
3.35, 129.624, 0.005709002, NaN, NaN, NaN, 0.03601294, "- N/A -   "
3.4, 131.276, 0.005797858, NaN, NaN, NaN, 0.0335714, "- N/A -   "
3.45, 132.573, 0.005875607, NaN, NaN, NaN, 0.03601294, "- N/A -   "
3.5, 133.87, 0.005950579, NaN, NaN, NaN, 0.0396753, "- N/A -   "
3.55, 135.286, 0.006031105, NaN, NaN, NaN, 0.04089605, "- N/A -   "
3.6, 136.583, 0.006108854, NaN, NaN, NaN, 0.0433376, "- N/A -   "
3.65, 138.116, 0.006192157, NaN, NaN, NaN, 0.0445584, "- N/A -   "
3.7, 139.768, 0.006289343, NaN, NaN, NaN, 0.0396753, "- N/A -   "
3.75, 141.537, 0.00638375, NaN, NaN, NaN, 0.0335714, "- N/A -   "
3.8, 142.8344, 0.00646428, NaN, NaN, NaN, 0.0347922, "- N/A -   "
3.85, 144.368, 0.006547581, NaN, NaN, NaN, 0.0347922, "- N/A -   "
3.9, 145.783, 0.00663088, NaN, NaN, NaN, 0.0347922, "- N/A -   "
3.95, 147.316, 0.00672252, NaN, NaN, NaN, 0.03112983, "- N/A -   "
4, 148.8497, 0.0068086, NaN, NaN, NaN, 0.0299091, "- N/A -   "
4.05, 150.265, 0.00688912, NaN, NaN, NaN, 0.03112983, "- N/A -   "
4.1, 151.445, 0.00696409, NaN, NaN, NaN, 0.0347922, "- N/A -   "
4.15, 152.742, 0.00703351, NaN, NaN, NaN, 0.04089605, "- N/A -   "
4.2, 153.8035, 0.00710293, NaN, NaN, NaN, 0.04699994, "- N/A -   "
4.25, 155.337, 0.00718623, NaN, NaN, NaN, 0.04699994, "- N/A -   "
4.3, 157.106, 0.00728064, NaN, NaN, NaN, 0.0433376, "- N/A -   "
4.35, 158.639, 0.0073695, NaN, NaN, NaN, 0.0396753, "- N/A -   "
4.4, 160.173, 0.00745558, NaN, NaN, NaN, 0.0384545, "- N/A -   "
4.45, 161.706, 0.00754443, NaN, NaN, NaN, 0.03601294, "- N/A -   "
4.5, 163.2393, 0.00763329, NaN, NaN, NaN, 0.0335714, "- N/A -   "
4.55, 165.009, 0.007730477, NaN, NaN, NaN, 0.0274675, "- N/A -   "
4.6, 166.306, 0.007811003, NaN, NaN, NaN, 0.0286883, "- N/A -   "
4.65, 167.7213, 0.007891529, NaN, NaN, NaN, 0.03112983, "- N/A -   "
4.7, 169.019, 0.007966501, NaN, NaN, NaN, 0.0335714, "- N/A -   "
4.75, 170.316, 0.008038697, NaN, NaN, NaN, 0.0384545, "- N/A -   "
4.8, 171.496, 0.008113669, NaN, NaN, NaN, 0.04211683, "- N/A -   "
4.85, 172.793, 0.008188642, NaN, NaN, NaN, 0.04577916, "- N/A -   "
4.9, 174.4443, 0.00827472, NaN, NaN, NaN, 0.0445584, "- N/A -   "
4.95, 175.978, 0.008358023, NaN, NaN, NaN, 0.0445584, "- N/A -   "
5, 177.511, 0.0084441, NaN, NaN, NaN, 0.0433376, "- N/A -   "
5.05, 179.162, 0.00853851, NaN, NaN, NaN, 0.0384545, "- N/A -   "
5.1, 180.931, 0.008635699, NaN, NaN, NaN, 0.0323506, "- N/A -   "
5.15, 182.583, 0.008727332, NaN, NaN, NaN, 0.0299091, "- N/A -   "
5.2, 183.998, 0.008810634, NaN, NaN, NaN, 0.0299091, "- N/A -   "
5.25, 185.531, 0.00889116, NaN, NaN, NaN, 0.0299091, "- N/A -   "
5.3, 186.711, 0.008968908, NaN, NaN, NaN, 0.0323506, "- N/A -   "
5.35, 188.244, 0.00905221, NaN, NaN, NaN, 0.0323506, "- N/A -   "
5.4, 189.66, 0.009127184, NaN, NaN, NaN, 0.03601294, "- N/A -   "
5.45, 191.075, 0.009210486, NaN, NaN, NaN, 0.03601294, "- N/A -   "
5.5, 192.49, 0.009288235, NaN, NaN, NaN, 0.0384545, "- N/A -   "
5.55, 193.67, 0.009360431, NaN, NaN, NaN, 0.0433376, "- N/A -   "
5.6, 195.085, 0.009438179, NaN, NaN, NaN, 0.04577916, "- N/A -   "
5.65, 196.618, 0.009527036, NaN, NaN, NaN, 0.0445584, "- N/A -   "
5.7, 198.624, 0.009629775, NaN, NaN, NaN, 0.03601294, "- N/A -   "
5.75, 200.157, 0.009718632, NaN, NaN, NaN, 0.0323506, "- N/A -   "
5.8, 201.69, 0.009807488, NaN, NaN, NaN, 0.03112983, "- N/A -   "
5.85, 202.9876, 0.00988246, NaN, NaN, NaN, 0.0335714, "- N/A -   "
5.9, 204.521, 0.00996576, NaN, NaN, NaN, 0.0347922, "- N/A -   "
5.95, 206.054, 0.0100463, NaN, NaN, NaN, 0.0347922, "- N/A -   "
6, 207.4696, 0.0101351, NaN, NaN, NaN, 0.0323506, "- N/A -   "
6.05, 209.121, 0.0102184, NaN, NaN, NaN, 0.0323506, "- N/A -   "
6.1, 210.654, 0.0102962, NaN, NaN, NaN, 0.0347922, "- N/A -   "
6.15, 211.9516, 0.0103739, NaN, NaN, NaN, 0.0384545, "- N/A -   "
6.2, 213.367, 0.0104461, NaN, NaN, NaN, 0.04211683, "- N/A -   "
6.25, 214.9, 0.0105294, NaN, NaN, NaN, 0.04211683, "- N/A -   "
6.3, 216.316, 0.0106127, NaN, NaN, NaN, 0.04211683, "- N/A -   "
6.35, 218.085, 0.0107016, NaN, NaN, NaN, 0.0396753, "- N/A -   "
6.4, 219.736, 0.010796, NaN, NaN, NaN, 0.0347922, "- N/A -   "
6.45, 221.269, 0.0108738, NaN, NaN, NaN, 0.0372337, "- N/A -   "
6.5, 222.921, 0.0109626, NaN, NaN, NaN, 0.0347922, "- N/A -   "
6.55, 224.454, 0.0110487, NaN, NaN, NaN, 0.0335714, "- N/A -   "
6.6, 225.987, 0.011132, NaN, NaN, NaN, 0.0335714, "- N/A -   "
6.65, 227.521, 0.0112153, NaN, NaN, NaN, 0.0335714, "- N/A -   "
6.7, 229.172, 0.01130138, NaN, NaN, NaN, 0.0323506, "- N/A -   "
6.75, 230.705, 0.0113847, NaN, NaN, NaN, 0.0323506, "- N/A -   "
6.8, 232.357, 0.011468, NaN, NaN, NaN, 0.0323506, "- N/A -   "
6.85, 233.654, 0.0115485, NaN, NaN, NaN, 0.0347922, "- N/A -   "
6.9, 235.187, 0.0116235, NaN, NaN, NaN, 0.0372337, "- N/A -   "
6.95, 236.603, 0.0116985, NaN, NaN, NaN, 0.04089605, "- N/A -   "
6.99, 237.5462, 0.0117595, NaN, NaN, NaN, 0.0433376, "- N/A -   "
7, 237.9, 0.0117762, NaN, NaN, NaN, 0.0445584, "- N/A -   "
7.01, 238.136, 0.0117901, NaN, NaN, NaN, 0.0445584, "- N/A -   "
7.22, 245.563, 0.0121677, NaN, NaN, NaN, 0.0323506, "- N/A -   "
7.43, 252.515, 0.0125287, NaN, NaN, NaN, 0.0274675, "- N/A -   "
7.64, 258.2887, 0.0128341, NaN, NaN, NaN, 0.04699994, "- N/A -   "
7.85, 265.9474, 0.0132146, NaN, NaN, NaN, 0.0335714, "- N/A -   "
8.06, 273.017, 0.01357554, NaN, NaN, NaN, 0.0286883, "- N/A -   "
8.27, 279.144, 0.0138949, NaN, NaN, NaN, 0.0433376, "- N/A -   "
8.48, 286.567, 0.0142586, NaN, NaN, NaN, 0.0384545, "- N/A -   "
8.69, 293.872, 0.0146196, NaN, NaN, NaN, 0.0323506, "- N/A -   "
8.9, 300.8239, 0.0149556, NaN, NaN, NaN, 0.0384545, "- N/A -   "
9.11, 308.247, 0.01531101, NaN, NaN, NaN, 0.03601294, "- N/A -   "
9.32, 315.552, 0.01566088, NaN, NaN, NaN, 0.03601294, "- N/A -   "
9.53, 323.211, 0.0160163, NaN, NaN, NaN, 0.0335714, "- N/A -   "
9.74, 330.28, 0.0163467, NaN, NaN, NaN, 0.04211683, "- N/A -   "
9.95, 338.175, 0.0167077, NaN, NaN, NaN, 0.0372337, "- N/A -   "
10.16, 345.833, 0.0170659, NaN, NaN, NaN, 0.0347922, "- N/A -   "
10.37, 353.1387, 0.0173991, NaN, NaN, NaN, 0.04089605, "- N/A -   "
10.58, 361.504, 0.0177712, NaN, NaN, NaN, 0.0323506, "- N/A -   "
10.79, 369.281, 0.0181266, NaN, NaN, NaN, 0.0299091, "- N/A -   "
11, 376.2326, 0.018446, NaN, NaN, NaN, 0.04211683, "- N/A -   "
11.21, 384.48, 0.0188097, NaN, NaN, NaN, 0.03601294, "- N/A -   "
11.42, 392.728, 0.0191679, NaN, NaN, NaN, 0.0323506, "- N/A -   "
11.63, 400.033, 0.0194984, NaN, NaN, NaN, 0.04089605, "- N/A -   "
11.84, 408.046, 0.0198482, NaN, NaN, NaN, 0.04211683, "- N/A -   "
12.05, 416.647, 0.02022586, NaN, NaN, NaN, 0.0299091, "- N/A -   "
12.26, 424.423, 0.0205618, NaN, NaN, NaN, 0.0347922, "- N/A -   "
12.47, 431.964, 0.0208895, NaN, NaN, NaN, 0.0445584, "- N/A -   "
12.68, 440.8013, 0.02126714, NaN, NaN, NaN, 0.0335714, "- N/A -   "
12.89, 448.9313, 0.0216142, NaN, NaN, NaN, 0.0347922, "- N/A -   "
13.1, 457.0613, 0.0219502, NaN, NaN, NaN, 0.04089605, "- N/A -   "
13.31, 465.663, 0.022314, NaN, NaN, NaN, 0.0347922, "- N/A -   "
13.52, 473.91, 0.0226694, NaN, NaN, NaN, 0.0323506, "- N/A -   "
13.73, 482.04, 0.0230137, NaN, NaN, NaN, 0.0347922, "- N/A -   "
13.94, 489.935, 0.0233386, NaN, NaN, NaN, 0.04577916, "- N/A -   "
14.15, 498.536, 0.02369958, NaN, NaN, NaN, 0.04211683, "- N/A -   "
14.36, 507.255, 0.0240633, NaN, NaN, NaN, 0.0347922, "- N/A -   "
14.57, 515.511, 0.0243993, NaN, NaN, NaN, 0.04089605, "- N/A -   "
14.78, 524.6184, 0.0247797, NaN, NaN, NaN, 0.0274675, "- N/A -   "
14.99, 532.4249, 0.02510739, NaN, NaN, NaN, 0.0372337, "- N/A -   "
15.2, 540.8229, 0.0254462, NaN, NaN, NaN, 0.04211683, "- N/A -   "
15.41, 550.285, 0.0258293, NaN, NaN, NaN, 0.0286883, "- N/A -   "
15.62, 558.4467, 0.0261598, NaN, NaN, NaN, 0.0372337, "- N/A -   "
15.83, 566.3715, 0.0264874, NaN, NaN, NaN, 0.04699994, "- N/A -   "
16.04, 576.3071, 0.02687896, NaN, NaN, NaN, 0.0274675, "- N/A -   "
16.25, 584.8233, 0.0272205, NaN, NaN, NaN, 0.03112983, "- N/A -   "
16.46, 592.8664, 0.0275454, NaN, NaN, NaN, 0.04211683, "- N/A -   "
16.67, 601.974, 0.0279064, NaN, NaN, NaN, 0.0372337, "- N/A -   "
16.88, 610.9634, 0.0282646, NaN, NaN, NaN, 0.0335714, "- N/A -   "
17.09, 619.4797, 0.02861165, NaN, NaN, NaN, 0.0347922, "- N/A -   "
17.3, 627.996, 0.0289476, NaN, NaN, NaN, 0.04211683, "- N/A -   "
17.51, 637.577, 0.0293197, NaN, NaN, NaN, 0.0335714, "- N/A -   "
17.72, 646.3294, 0.0296724, NaN, NaN, NaN, 0.03112983, "- N/A -   "
17.93, 654.2542, 0.0299889, NaN, NaN, NaN, 0.04577916, "- N/A -   "
18.14, 663.7167, 0.030361, NaN, NaN, NaN, 0.03601294, "- N/A -   "
18.35, 672.8243, 0.0307192, NaN, NaN, NaN, 0.0323506, "- N/A -   "
18.56, 681.104, 0.0310469, NaN, NaN, NaN, 0.04211683, "- N/A -   "
18.77, 690.6847, 0.0314217, NaN, NaN, NaN, 0.03112983, "- N/A -   "
18.98, 699.674, 0.0317688, NaN, NaN, NaN, 0.0323506, "- N/A -   "
19.19, 707.835, 0.0320937, NaN, NaN, NaN, 0.0433376, "- N/A -   "
19.4, 717.6527, 0.0324686, NaN, NaN, NaN, 0.0323506, "- N/A -   "
19.61, 726.2873, 0.0328101, NaN, NaN, NaN, 0.0372337, "- N/A -   "
19.82, 735.1583, 0.03315164, NaN, NaN, NaN, 0.0396753, "- N/A -   "
20.03, 744.266, 0.0335071, NaN, NaN, NaN, 0.0372337, "- N/A -   "
20.24, 753.6101, 0.0338736, NaN, NaN, NaN, 0.03112983, "- N/A -   "
20.45, 762.5995, 0.03422069, NaN, NaN, NaN, 0.03112983, "- N/A -   "
20.66, 770.761, 0.03454002, NaN, NaN, NaN, 0.0445584, "- N/A -   "
20.87, 780.46, 0.0349093, NaN, NaN, NaN, 0.03601294, "- N/A -   "
21.08, 789.9223, 0.03527308, NaN, NaN, NaN, 0.0299091, "- N/A -   "
21.29, 797.7289, 0.0355869, NaN, NaN, NaN, 0.04577916, "- N/A -   "
21.5, 807.6645, 0.03596449, NaN, NaN, NaN, 0.0335714, "- N/A -   "
21.71, 817.2452, 0.0363255, NaN, NaN, NaN, 0.0286883, "- N/A -   "
21.92, 825.17, 0.036642, NaN, NaN, NaN, 0.0445584, "- N/A -   "
22.13, 834.869, 0.03701133, NaN, NaN, NaN, 0.03601294, "- N/A -   "
22.34, 844.095, 0.037364, NaN, NaN, NaN, 0.0347922, "- N/A -   "
22.55, 852.966, 0.03769996, NaN, NaN, NaN, 0.04089605, "- N/A -   "
22.76, 862.31, 0.0380609, NaN, NaN, NaN, 0.03601294, "- N/A -   "
22.97, 871.5361, 0.0384136, NaN, NaN, NaN, 0.03601294, "- N/A -   "
23.18, 880.644, 0.03876068, NaN, NaN, NaN, 0.03601294, "- N/A -   "
23.39, 889.3965, 0.0390994, NaN, NaN, NaN, 0.04089605, "- N/A -   "
23.6, 898.9773, 0.0394604, NaN, NaN, NaN, 0.03601294, "- N/A -   "
23.81, 908.2031, 0.0398131, NaN, NaN, NaN, 0.0347922, "- N/A -   "
24.02, 916.8377, 0.0401463, NaN, NaN, NaN, 0.04211683, "- N/A -   "
24.23, 926.655, 0.04052114, NaN, NaN, NaN, 0.03112983, "- N/A -   "
24.44, 935.999, 0.0408793, NaN, NaN, NaN, 0.0274675, "- N/A -   "
24.65, 943.924, 0.04118756, NaN, NaN, NaN, 0.04577916, "- N/A -   "
24.86, 953.741, 0.0415596, NaN, NaN, NaN, 0.03601294, "- N/A -   "
25.07, 963.085, 0.04192062, NaN, NaN, NaN, 0.03112983, "- N/A -   "
25.28, 971.3652, 0.0422427, NaN, NaN, NaN, 0.0433376, "- N/A -   "
25.49, 980.7093, 0.0426037, NaN, NaN, NaN, 0.0396753, "- N/A -   "
25.7, 990.5267, 0.04297579, NaN, NaN, NaN, 0.0286883, "- N/A -   "
25.91, 999.3977, 0.0433118, NaN, NaN, NaN, 0.0347922, "- N/A -   "
26.12, 1007.91, 0.0436367, NaN, NaN, NaN, 0.04577916, "- N/A -   "
26.33, 1017.77, 0.04401429, NaN, NaN, NaN, 0.03601294, "- N/A -   "
26.54, 1027.191, 0.0443697, NaN, NaN, NaN, 0.0323506, "- N/A -   "
26.75, 1035.9, 0.0447002, NaN, NaN, NaN, 0.04089605, "- N/A -   "
26.96, 1045.32, 0.0450611, NaN, NaN, NaN, 0.03601294, "- N/A -   "
27.17, 1054.98, 0.0454193, NaN, NaN, NaN, 0.0323506, "- N/A -   "
27.38, 1063.682, 0.0457498, NaN, NaN, NaN, 0.04089605, "- N/A -   "
27.59, 1072.75, 0.0460969, NaN, NaN, NaN, 0.04211683, "- N/A -   "
27.8, 1082.4, 0.0464606, NaN, NaN, NaN, 0.03601294, "- N/A -   "
28.01, 1091.587, 0.0468049, NaN, NaN, NaN, 0.0384545, "- N/A -   "
28.22, 1100.77, 0.0471576, NaN, NaN, NaN, 0.0384545, "- N/A -   "
28.43, 1110.79, 0.04752966, NaN, NaN, NaN, 0.0274675, "- N/A -   "
28.64, 1119.37, 0.04785454, NaN, NaN, NaN, 0.0384545, "- N/A -   "
28.85, 1128.2, 0.0481905, NaN, NaN, NaN, 0.04577916, "- N/A -   "
29.06, 1138.33, 0.04857372, NaN, NaN, NaN, 0.0299091, "- N/A -   "
29.27, 1147.16, 0.04890693, NaN, NaN, NaN, 0.0372337, "- N/A -   "
29.48, 1155.983, 0.0492374, NaN, NaN, NaN, 0.04577916, "- N/A -   "
29.69, 1166.358, 0.0496261, NaN, NaN, NaN, 0.0286883, "- N/A -   "
29.9, 1175.42, 0.0499704, NaN, NaN, NaN, 0.0323506, "- N/A -   "
30.11, 1184.01, 0.0503009, NaN, NaN, NaN, 0.04089605, "- N/A -   "
30.32, 1193.43, 0.05065351, NaN, NaN, NaN, 0.0384545, "- N/A -   "
30.53, 1203.326, 0.05101726, NaN, NaN, NaN, 0.0323506, "- N/A -   "
30.74, 1212.27, 0.05136158, NaN, NaN, NaN, 0.0347922, "- N/A -   "
30.95, 1221.33, 0.05170312, NaN, NaN, NaN, 0.04089605, "- N/A -   "
31.16, 1230.75, 0.0520669, NaN, NaN, NaN, 0.0335714, "- N/A -   "
31.37, 1240.175, 0.05241952, NaN, NaN, NaN, 0.0323506, "- N/A -   "
31.58, 1248.52, 0.0527388, NaN, NaN, NaN, 0.04577916, "- N/A -   "
31.79, 1258.54, 0.0531165, NaN, NaN, NaN, 0.0335714, "- N/A -   "
32, 1267.72, 0.0534691, NaN, NaN, NaN, 0.0335714, "- N/A -   "
32.21, 1276.31, 0.05379679, NaN, NaN, NaN, 0.04211683, "- N/A -   "
32.42, 1286.44, 0.0541772, NaN, NaN, NaN, 0.0286883, "- N/A -   "
32.63, 1295.27, 0.054516, NaN, NaN, NaN, 0.0335714, "- N/A -   "
32.84, 1303.86, 0.0548436, NaN, NaN, NaN, 0.0445584, "- N/A -   "
33.05, 1313.75, 0.0552185, NaN, NaN, NaN, 0.0323506, "- N/A -   "
33.26, 1322.7, 0.05556003, NaN, NaN, NaN, 0.0372337, "- N/A -   "
33.47, 1331.522, 0.0558988, NaN, NaN, NaN, 0.04089605, "- N/A -   "
33.68, 1341.3, 0.0562625, NaN, NaN, NaN, 0.0347922, "- N/A -   "
33.89, 1350.36, 0.0566152, NaN, NaN, NaN, 0.0335714, "- N/A -   "
34.1, 1359.78, 0.05696784, NaN, NaN, NaN, 0.0323506, "- N/A -   "
34.31, 1368.01, 0.0572844, NaN, NaN, NaN, 0.04699994, "- N/A -   "
34.52, 1378.15, 0.0576648, NaN, NaN, NaN, 0.0335714, "- N/A -   "
34.73, 1387.69, 0.05802856, NaN, NaN, NaN, 0.0274675, "- N/A -   "
34.94, 1395.68, 0.058334, NaN, NaN, NaN, 0.04699994, "- N/A -   "
35.15, 1406.05, 0.05872275, NaN, NaN, NaN, 0.03112983, "- N/A -   "
35.36, 1415.48, 0.05907817, NaN, NaN, NaN, 0.0286883, "- N/A -   "
35.57, 1423.47, 0.0593892, NaN, NaN, NaN, 0.04577916, "- N/A -   "
35.78, 1433.12, 0.0597557, NaN, NaN, NaN, 0.0396753, "- N/A -   "
35.99, 1442.55, 0.0601167, NaN, NaN, NaN, 0.0335714, "- N/A -   "
36.2, 1451.37, 0.0604499, NaN, NaN, NaN, 0.04089605, "- N/A -   "
36.41, 1460.91, 0.0608109, NaN, NaN, NaN, 0.03601294, "- N/A -   "
36.62, 1469.97, 0.0611607, NaN, NaN, NaN, 0.03601294, "- N/A -   "
36.83, 1479.04, 0.0615106, NaN, NaN, NaN, 0.03601294, "- N/A -   "
37.04, 1487.86, 0.06184937, NaN, NaN, NaN, 0.04089605, "- N/A -   "
37.165, 1493.47, 0.06206596, NaN, NaN, NaN, 0.0372337, "- N/A -   "