File: 2_Tensile_Data/Hamel_ForceTest_Bolt1_Test1.csv
Time, Load (lb), Position (in), AxialStrain (in), TransverseStrain (in), Auxiliary (), Control Out (V), Stress (psi)
0.0,1.29742,0.0, NaN, NaN, NaN,0.09949338," ""- N/A -   """
0.01,1.76921,2.49908e-05, NaN, NaN, NaN,0.108039," ""- N/A -   """
0.02,2.12305,5.5535e-05, NaN, NaN, NaN,0.108039," ""- N/A -   """
0.03,2.59484,8.33026e-05, NaN, NaN, NaN,0.103156," ""- N/A -   """
0.04,2.94869,0.00011107, NaN, NaN, NaN,0.0982726," ""- N/A -   """
0.1,5.307636,0.000263791, NaN, NaN, NaN,0.0750778," ""- N/A -   """
0.16,7.07685,0.000394299, NaN, NaN, NaN,0.06164927," ""- N/A -   """
0.22,9.31785,0.000533136, NaN, NaN, NaN,0.0445584," ""- N/A -   """
0.28,11.0871,0.0006525367, NaN, NaN, NaN,0.03601294," ""- N/A -   """
0.34,12.8563,0.00076083, NaN, NaN, NaN,0.0335714," ""- N/A -   """
0.4,14.3896,0.0008552396, NaN, NaN, NaN,0.0347922," ""- N/A -   """
0.46,15.9229,0.0009524259, NaN, NaN, NaN,0.03601294," ""- N/A -   """
0.52,17.4562,0.00105239, NaN, NaN, NaN,0.03601294," ""- N/A -   """
0.58,19.1075,0.001152352, NaN, NaN, NaN,0.03601294," ""- N/A -   """
0.64,20.52286,0.00124398, NaN, NaN, NaN,0.0396753," ""- N/A -   """
0.7,22.1741,0.00134117, NaN, NaN, NaN,0.04211683," ""- N/A -   """
0.76,23.82539,0.00143836, NaN, NaN, NaN,0.04211683," ""- N/A -   """
0.82,25.7125,0.00154943, NaN, NaN, NaN,0.0372337," ""- N/A -   """
0.88,27.5997,0.0016605, NaN, NaN, NaN,0.0335714," ""- N/A -   """
0.94,29.251,0.00176324, NaN, NaN, NaN,0.03112983," ""- N/A -   """
1.0,30.6663,0.00185209, NaN, NaN, NaN,0.03601294," ""- N/A -   """
1.06,32.4356,0.00195206, NaN, NaN, NaN,0.03601294," ""- N/A -   """
1.12,34.08682,0.0020548, NaN, NaN, NaN,0.0347922," ""- N/A -   """
1.18,35.7381,0.002157536, NaN, NaN, NaN,0.0347922," ""- N/A -   """
1.24,37.5073,0.002249169, NaN, NaN, NaN,0.0372337," ""- N/A -   """
1.3,38.9227,0.00233803, NaN, NaN, NaN,0.0433376," ""- N/A -   """
1.36,40.69188,0.00243799, NaN, NaN, NaN,0.04211683," ""- N/A -   """
1.42,42.3431,0.0025435, NaN, NaN, NaN,0.0396753," ""- N/A -   """
1.48,44.1124,0.00264624, NaN, NaN, NaN,0.0384545," ""- N/A -   """
1.54,45.8816,0.00275176, NaN, NaN, NaN,0.03601294," ""- N/A -   """
1.6,47.5328,0.00285728, NaN, NaN, NaN,0.0347922," ""- N/A -   """
1.66,49.30204,0.002957241, NaN, NaN, NaN,0.0335714," ""- N/A -   """
1.72,50.9533,0.00305998, NaN, NaN, NaN,0.0323506," ""- N/A -   """
1.78,52.6046,0.00315994, NaN, NaN, NaN,0.0323506," ""- N/A -   """
1.84,54.3738,0.003259907, NaN, NaN, NaN,0.0335714," ""- N/A -   """
1.9,56.02505,0.00335987, NaN, NaN, NaN,0.0323506," ""- N/A -   """
1.96,57.6763,0.00345428, NaN, NaN, NaN,0.0347922," ""- N/A -   """
2.02,59.2096,0.00354591, NaN, NaN, NaN,0.0396753," ""- N/A -   """
2.08,60.8609,0.0036431, NaN, NaN, NaN,0.0396753," ""- N/A -   """
2.14,62.6301,0.00374028, NaN, NaN, NaN,0.04089605," ""- N/A -   """
2.2,64.28137,0.00383747, NaN, NaN, NaN,0.04211683," ""- N/A -   """
2.26,66.2865,0.00395409, NaN, NaN, NaN,0.0347922," ""- N/A -   """
2.32,68.17364,0.00405961, NaN, NaN, NaN,0.0323506," ""- N/A -   """
2.38,69.707,0.004154021, NaN, NaN, NaN,0.0347922," ""- N/A -   """
2.44,71.59412,0.00425676, NaN, NaN, NaN,0.0347922," ""- N/A -   """
2.5,73.59922,0.004365054, NaN, NaN, NaN,0.0299091," ""- N/A -   """
2.56,75.25049,0.004465017, NaN, NaN, NaN,0.0299091," ""- N/A -   """
2.62,76.7838,0.004553873, NaN, NaN, NaN,0.0347922," ""- N/A -   """
2.68,78.19917,0.00463718, NaN, NaN, NaN,0.04211683," ""- N/A -   """
2.74,79.85043,0.004723255, NaN, NaN, NaN,0.0482207," ""- N/A -   """
2.8,81.5017,0.004825995, NaN, NaN, NaN,0.0482207," ""- N/A -   """
2.86,83.86065,0.004939842, NaN, NaN, NaN,0.04089605," ""- N/A -   """
2.92,85.74781,0.005050912, NaN, NaN, NaN,0.03601294," ""- N/A -   """
2.98,87.75292,0.005156428, NaN, NaN, NaN,0.0335714," ""- N/A -   """
3.04,89.758,0.0052675, NaN, NaN, NaN,0.0286883," ""- N/A -   """
3.1,91.64519,0.00537024, NaN, NaN, NaN,0.0274675," ""- N/A -   """
3.16,93.53234,0.0054702, NaN, NaN, NaN,0.0274675," ""- N/A -   """
3.22,95.06567,0.005561834, NaN, NaN, NaN,0.03112983," ""- N/A -   """
3.28,96.599,0.00564791, NaN, NaN, NaN,0.0372337," ""- N/A -   """
3.34,98.2502,0.00573677, NaN, NaN, NaN,0.04211683," ""- N/A -   """
3.4,100.019,0.00583396, NaN, NaN, NaN,0.0433376," ""- N/A -   """
3.46,101.907,0.0059367, NaN, NaN, NaN,0.04211683," ""- N/A -   """
3.52,104.03,0.006042212, NaN, NaN, NaN,0.04089605," ""- N/A -   """
3.58,105.917,0.006144952, NaN, NaN, NaN,0.0396753," ""- N/A -   """
3.64,108.04,0.00625325, NaN, NaN, NaN,0.03601294," ""- N/A -   """
3.7,110.045,0.00636432, NaN, NaN, NaN,0.03112983," ""- N/A -   """
3.76,111.932,0.00646428, NaN, NaN, NaN,0.0323506," ""- N/A -   """
3.82,113.465,0.006555911, NaN, NaN, NaN,0.0347922," ""- N/A -   """
3.88,115.471,0.006650321, NaN, NaN, NaN,0.0384545," ""- N/A -   """
3.94,117.358,0.006750284, NaN, NaN, NaN,0.0372337," ""- N/A -   """
4,119.245,0.00684747, NaN, NaN, NaN,0.0384545," ""- N/A -   """
4.06,120.896,0.006936326, NaN, NaN, NaN,0.0433376," ""- N/A -   """
4.12,122.665,0.00702796, NaN, NaN, NaN,0.04699994," ""- N/A -   """
4.18,124.67,0.00713348, NaN, NaN, NaN,0.0445584," ""- N/A -   """
4.24,127.147,0.007252876, NaN, NaN, NaN,0.03601294," ""- N/A -   """
4.3,129.27,0.007363946, NaN, NaN, NaN,0.03112983," ""- N/A -   """
4.36,131.1576,0.007466686, NaN, NaN, NaN,0.0299091," ""- N/A -   """
4.42,132.9268,0.007558319, NaN, NaN, NaN,0.0335714," ""- N/A -   """
4.48,134.696,0.00765273, NaN, NaN, NaN,0.03601294," ""- N/A -   """
4.54,137.055,0.007766575, NaN, NaN, NaN,0.0299091," ""- N/A -   """
4.6,138.824,0.007863762, NaN, NaN, NaN,0.03112983," ""- N/A -   """
4.66,140.711,0.007958171, NaN, NaN, NaN,0.0335714," ""- N/A -   """
4.72,142.5985,0.008055357, NaN, NaN, NaN,0.0347922," ""- N/A -   """
4.78,144.486,0.00815532, NaN, NaN, NaN,0.0347922," ""- N/A -   """
4.84,146.137,0.0082414, NaN, NaN, NaN,0.04089605," ""- N/A -   """
4.9,148.024,0.008338586, NaN, NaN, NaN,0.0433376," ""- N/A -   """
4.96,150.029,0.008435773, NaN, NaN, NaN,0.0433376," ""- N/A -   """
5.02,151.798,0.008532958, NaN, NaN, NaN,0.0445584," ""- N/A -   """
5.08,153.686,0.008630145, NaN, NaN, NaN,0.04577916," ""- N/A -   """
5.14,156.2804,0.008749546, NaN, NaN, NaN,0.0372337," ""- N/A -   """
5.2,158.521,0.008863392, NaN, NaN, NaN,0.03112983," ""- N/A -   """
5.26,160.5265,0.008968908, NaN, NaN, NaN,0.0286883," ""- N/A -   """
5.32,162.414,0.009068872, NaN, NaN, NaN,0.0286883," ""- N/A -   """
5.38,164.183,0.00915773, NaN, NaN, NaN,0.0335714," ""- N/A -   """
5.44,165.834,0.009246584, NaN, NaN, NaN,0.0384545," ""- N/A -   """
5.5,167.603,0.009338217, NaN, NaN, NaN,0.04211683," ""- N/A -   """
5.56,169.726,0.009435403, NaN, NaN, NaN,0.0433376," ""- N/A -   """
5.62,171.849,0.009543696, NaN, NaN, NaN,0.0396753," ""- N/A -   """
5.68,174.208,0.00966032, NaN, NaN, NaN,0.0335714," ""- N/A -   """
5.74,176.214,0.009763059, NaN, NaN, NaN,0.03112983," ""- N/A -   """
5.8,177.983,0.009857468, NaN, NaN, NaN,0.0335714," ""- N/A -   """
5.86,180.106,0.009962985, NaN, NaN, NaN,0.03112983," ""- N/A -   """
5.92,182.229,0.0100713, NaN, NaN, NaN,0.0274675," ""- N/A -   """
5.98,184.234,0.0101685, NaN, NaN, NaN,0.0286883," ""- N/A -   """
6.04,185.767,0.0102518, NaN, NaN, NaN,0.03601294," ""- N/A -   """
6.1,187.419,0.01033507, NaN, NaN, NaN,0.0433376," ""- N/A -   """
6.16,189.3057,0.0104295, NaN, NaN, NaN,0.04699994," ""- N/A -   """
6.22,191.547,0.010535, NaN, NaN, NaN,0.0445584," ""- N/A -   """
6.28,193.7877,0.0106461, NaN, NaN, NaN,0.0384545," ""- N/A -   """
6.34,196.0287,0.0107544, NaN, NaN, NaN,0.0347922," ""- N/A -   """
6.4,197.916,0.0108515, NaN, NaN, NaN,0.03601294," ""- N/A -   """
6.46,200.275,0.0109682, NaN, NaN, NaN,0.0299091," ""- N/A -   """
6.52,202.162,0.0110709, NaN, NaN, NaN,0.0274675," ""- N/A -   """
6.58,203.931,0.0111625, NaN, NaN, NaN,0.0323506," ""- N/A -   """
6.64,205.7,0.0112542, NaN, NaN, NaN,0.0347922," ""- N/A -   """
6.7,207.352,0.011343, NaN, NaN, NaN,0.0396753," ""- N/A -   """
6.76,209.357,0.0114402, NaN, NaN, NaN,0.04211683," ""- N/A -   """
6.82,211.244,0.01154018, NaN, NaN, NaN,0.04089605," ""- N/A -   """
6.88,213.249,0.0116401, NaN, NaN, NaN,0.04211683," ""- N/A -   """
6.94,215.254,0.01173733, NaN, NaN, NaN,0.04211683," ""- N/A -   """
7,217.495,0.0118484, NaN, NaN, NaN,0.0372337," ""- N/A -   """
7.06,219.8541,0.0119678, NaN, NaN, NaN,0.0299091," ""- N/A -   """
7.12,221.859,0.01207054, NaN, NaN, NaN,0.0286883," ""- N/A -   """
7.18,223.746,0.0121677, NaN, NaN, NaN,0.0299091," ""- N/A -   """
7.24,225.6335,0.0122621, NaN, NaN, NaN,0.03112983," ""- N/A -   """
7.3,227.521,0.0123593, NaN, NaN, NaN,0.0323506," ""- N/A -   """
7.36,229.408,0.0124537, NaN, NaN, NaN,0.0347922," ""- N/A -   """
7.42,231.177,0.01254814, NaN, NaN, NaN,0.0384545," ""- N/A -   """
7.48,232.828,0.012637, NaN, NaN, NaN,0.04211683," ""- N/A -   """
7.54,234.715,0.0127342, NaN, NaN, NaN,0.0433376," ""- N/A -   """
7.6,236.956,0.0128397, NaN, NaN, NaN,0.04089605," ""- N/A -   """
7.66,239.433,0.0129591, NaN, NaN, NaN,0.0323506," ""- N/A -   """
7.72,241.438,0.0130646, NaN, NaN, NaN,0.03112983," ""- N/A -   """
7.78,243.089,0.0131535, NaN, NaN, NaN,0.0347922," ""- N/A -   """
7.84,245.092,0.0132507, NaN, NaN, NaN,0.03601294," ""- N/A -   """
7.9,247.095,0.0133534, NaN, NaN, NaN,0.0347922," ""- N/A -   """
7.96,249.098,0.0134561, NaN, NaN, NaN,0.0335714," ""- N/A -   """
7.99,250.041,0.0135061, NaN, NaN, NaN,0.0347922," ""- N/A -   """
8,250.512,0.01352, NaN, NaN, NaN,0.0347922," ""- N/A -   """
8.01,250.63,0.0135367, NaN, NaN, NaN,0.0347922," ""- N/A -   """
8.03,251.337,0.0135672, NaN, NaN, NaN,0.03601294," ""- N/A -   """
8.05,251.926,0.0136005, NaN, NaN, NaN,0.0372337," ""- N/A -   """
8.07,252.515,0.0136283, NaN, NaN, NaN,0.0396753," ""- N/A -   """
8.09,253.104,0.0136616, NaN, NaN, NaN,0.04089605," ""- N/A -   """
8.11,253.811,0.0136922, NaN, NaN, NaN,0.04089605," ""- N/A -   """
8.13,254.4,0.0137255, NaN, NaN, NaN,0.04089605," ""- N/A -   """
8.15,255.225,0.0137588, NaN, NaN, NaN,0.04089605," ""- N/A -   """
8.17,255.932,0.0137921, NaN, NaN, NaN,0.04089605," ""- N/A -   """
8.19,256.639,0.0138282, NaN, NaN, NaN,0.04089605," ""- N/A -   """
8.21,257.228,0.0138615, NaN, NaN, NaN,0.0396753," ""- N/A -   """
8.23,257.9352,0.0138949, NaN, NaN, NaN,0.0396753," ""- N/A -   """
8.25,258.407,0.0139282, NaN, NaN, NaN,0.0396753," ""- N/A -   """
8.27,259.349,0.0139615, NaN, NaN, NaN,0.0396753," ""- N/A -   """
8.29,259.938,0.0139976, NaN, NaN, NaN,0.0396753," ""- N/A -   """
8.31,260.6452,0.0140337, NaN, NaN, NaN,0.0384545," ""- N/A -   """
8.33,261.352,0.014067, NaN, NaN, NaN,0.0372337," ""- N/A -   """
8.35,261.9413,0.0141003, NaN, NaN, NaN,0.0372337," ""- N/A -   """
8.37,262.648,0.0141337, NaN, NaN, NaN,0.0372337," ""- N/A -   """
8.39,263.473,0.0141725, NaN, NaN, NaN,0.03601294," ""- N/A -   """
8.41,264.0622,0.0142059, NaN, NaN, NaN,0.03601294," ""- N/A -   """
8.43,264.6513,0.0142392, NaN, NaN, NaN,0.03601294," ""- N/A -   """
8.45,265.358,0.0142725, NaN, NaN, NaN,0.0347922," ""- N/A -   """
8.47,265.9474,0.0143058, NaN, NaN, NaN,0.0347922," ""- N/A -   """
8.49,266.7722,0.0143419, NaN, NaN, NaN,0.0347922," ""- N/A -   """
8.51,267.479,0.014378, NaN, NaN, NaN,0.0335714," ""- N/A -   """
8.53,268.1861,0.0144141, NaN, NaN, NaN,0.0323506," ""- N/A -   """
8.55,268.7752,0.0144447, NaN, NaN, NaN,0.0323506," ""- N/A -   """
8.57,269.482,0.014478, NaN, NaN, NaN,0.0323506," ""- N/A -   """
8.59,270.307,0.0145113, NaN, NaN, NaN,0.0323506," ""- N/A -   """
8.61,270.8961,0.0145446, NaN, NaN, NaN,0.0323506," ""- N/A -   """
8.63,271.485,0.0145779, NaN, NaN, NaN,0.0335714," ""- N/A -   """
8.65,272.192,0.0146085, NaN, NaN, NaN,0.0335714," ""- N/A -   """
8.67,272.7813,0.0146418, NaN, NaN, NaN,0.0335714," ""- N/A -   """
8.69,273.606,0.01467791, NaN, NaN, NaN,0.0335714," ""- N/A -   """
8.71,274.195,0.0147112, NaN, NaN, NaN,0.0335714," ""- N/A -   """
8.73,274.9022,0.0147446, NaN, NaN, NaN,0.0323506," ""- N/A -   """
8.75,275.4913,0.0147751, NaN, NaN, NaN,0.0335714," ""- N/A -   """
8.77,276.08,0.01480564, NaN, NaN, NaN,0.0347922," ""- N/A -   """
8.79,276.67,0.0148362, NaN, NaN, NaN,0.0372337," ""- N/A -   """
8.81,277.377,0.0148667, NaN, NaN, NaN,0.0372337," ""- N/A -   """
8.83,277.8478,0.0148945, NaN, NaN, NaN,0.0396753," ""- N/A -   """
8.85,278.437,0.0149278, NaN, NaN, NaN,0.0396753," ""- N/A -   """
8.87,279.144,0.0149584, NaN, NaN, NaN,0.04089605," ""- N/A -   """
8.89,279.851,0.0149917, NaN, NaN, NaN,0.04089605," ""- N/A -   """
8.91,280.44,0.0150222, NaN, NaN, NaN,0.04211683," ""- N/A -   """
8.93,281.0291,0.0150555, NaN, NaN, NaN,0.0433376," ""- N/A -   """
8.95,281.8539,0.0150861, NaN, NaN, NaN,0.0445584," ""- N/A -   """
8.97,282.443,0.0151194, NaN, NaN, NaN,0.0433376," ""- N/A -   """
8.99,283.15,0.0151555, NaN, NaN, NaN,0.04211683," ""- N/A -   """
9.01,283.857,0.01519161, NaN, NaN, NaN,0.04211683," ""- N/A -   """
9.03,284.682,0.0152277, NaN, NaN, NaN,0.0396753," ""- N/A -   """
9.05,285.624,0.0152666, NaN, NaN, NaN,0.0372337," ""- N/A -   """
9.07,286.213,0.0153027, NaN, NaN, NaN,0.03601294," ""- N/A -   """
9.09,287.038,0.0153388, NaN, NaN, NaN,0.0347922," ""- N/A -   """
9.11,287.7452,0.0153721, NaN, NaN, NaN,0.0347922," ""- N/A -   """
9.13,288.334,0.0154054, NaN, NaN, NaN,0.0347922," ""- N/A -   """
9.15,289.041,0.015436, NaN, NaN, NaN,0.03601294," ""- N/A -   """
9.17,289.63,0.0154665, NaN, NaN, NaN,0.0372337," ""- N/A -   """
9.19,290.22,0.0154998, NaN, NaN, NaN,0.0372337," ""- N/A -   """
9.21,291.044,0.0155359, NaN, NaN, NaN,0.0372337," ""- N/A -   """
9.23,291.7513,0.015572, NaN, NaN, NaN,0.03601294," ""- N/A -   """
9.25,292.458,0.0156053, NaN, NaN, NaN,0.03601294," ""- N/A -   """
9.27,293.165,0.0156414, NaN, NaN, NaN,0.0335714," ""- N/A -   """
9.29,294.108,0.0156803, NaN, NaN, NaN,0.03112983," ""- N/A -   """
9.31,294.697,0.0157136, NaN, NaN, NaN,0.03112983," ""- N/A -   """
9.33,295.404,0.0157497, NaN, NaN, NaN,0.03112983," ""- N/A -   """
9.35,296.111,0.0157803, NaN, NaN, NaN,0.03112983," ""- N/A -   """
9.37,296.7,0.0158136, NaN, NaN, NaN,0.0323506," ""- N/A -   """
9.39,297.289,0.0158441, NaN, NaN, NaN,0.0323506," ""- N/A -   """
9.41,297.878,0.01587469, NaN, NaN, NaN,0.0347922," ""- N/A -   """
9.43,298.467,0.0159052, NaN, NaN, NaN,0.0347922," ""- N/A -   """
9.45,299.174,0.0159386, NaN, NaN, NaN,0.0347922," ""- N/A -   """
9.47,299.7635,0.0159691, NaN, NaN, NaN,0.03601294," ""- N/A -   """
9.49,300.353,0.0159969, NaN, NaN, NaN,0.0384545," ""- N/A -   """
9.51,300.9417,0.0160246, NaN, NaN, NaN,0.04089605," ""- N/A -   """
9.53,301.531,0.0160552, NaN, NaN, NaN,0.0433376," ""- N/A -   """
9.55,302.0022,0.0160829, NaN, NaN, NaN,0.04577916," ""- N/A -   """
9.57,302.709,0.0161163, NaN, NaN, NaN,0.0445584," ""- N/A -   """
9.59,303.416,0.0161496, NaN, NaN, NaN,0.04577916," ""- N/A -   """
9.61,304.123,0.0161829, NaN, NaN, NaN,0.04577916," ""- N/A -   """
9.63,304.948,0.01621623, NaN, NaN, NaN,0.0445584," ""- N/A -   """
9.65,305.7726,0.0162551, NaN, NaN, NaN,0.04211683," ""- N/A -   """
9.67,306.48,0.016294, NaN, NaN, NaN,0.0396753," ""- N/A -   """
9.69,307.304,0.0163273, NaN, NaN, NaN,0.0396753," ""- N/A -   """
9.71,308.011,0.0163634, NaN, NaN, NaN,0.0384545," ""- N/A -   """
9.73,308.718,0.0163995, NaN, NaN, NaN,0.0372337," ""- N/A -   """
9.75,309.425,0.0164356, NaN, NaN, NaN,0.03601294," ""- N/A -   """
9.77,310.25,0.0164717, NaN, NaN, NaN,0.0347922," ""- N/A -   """
9.79,310.957,0.01650779, NaN, NaN, NaN,0.0335714," ""- N/A -   """
9.81,311.782,0.0165439, NaN, NaN, NaN,0.0323506," ""- N/A -   """
9.83,312.371,0.0165772, NaN, NaN, NaN,0.0323506," ""- N/A -   """
9.85,313.078,0.0166133, NaN, NaN, NaN,0.03112983," ""- N/A -   """
9.87,313.9026,0.01665218, NaN, NaN, NaN,0.0299091," ""- N/A -   """
9.89,314.7274,0.0166855, NaN, NaN, NaN,0.0286883," ""- N/A -   """
9.91,315.434,0.0167216, NaN, NaN, NaN,0.0274675," ""- N/A -   """
9.93,316.259,0.0167577, NaN, NaN, NaN,0.0274675," ""- N/A -   """
9.95,316.966,0.016791, NaN, NaN, NaN,0.0262467," ""- N/A -   """
9.97,317.4374,0.0168216, NaN, NaN, NaN,0.0274675," ""- N/A -   """
9.99,318.144,0.0168549, NaN, NaN, NaN,0.0274675," ""- N/A -   """
10.01,318.7335,0.0168882, NaN, NaN, NaN,0.0286883," ""- N/A -   """
10.03,319.44,0.0169187, NaN, NaN, NaN,0.0286883," ""- N/A -   """
10.05,319.912,0.0169465, NaN, NaN, NaN,0.0323506," ""- N/A -   """
10.07,320.383,0.0169715, NaN, NaN, NaN,0.0347922," ""- N/A -   """
10.09,320.9722,0.0170021, NaN, NaN, NaN,0.03601294," ""- N/A -   """
10.11,321.679,0.0170326, NaN, NaN, NaN,0.0372337," ""- N/A -   """
10.13,322.268,0.0170631, NaN, NaN, NaN,0.0384545," ""- N/A -   """
10.15,322.74,0.0170909, NaN, NaN, NaN,0.04089605," ""- N/A -   """
10.17,323.3287,0.0171215, NaN, NaN, NaN,0.0433376," ""- N/A -   """
10.19,324.036,0.01714922, NaN, NaN, NaN,0.0445584," ""- N/A -   """
10.21,324.625,0.01718254, NaN, NaN, NaN,0.04577916," ""- N/A -   """
10.23,325.332,0.0172131, NaN, NaN, NaN,0.04699994," ""- N/A -   """
10.25,325.921,0.0172464, NaN, NaN, NaN,0.04699994," ""- N/A -   """
10.27,326.6278,0.01727695, NaN, NaN, NaN,0.04699994," ""- N/A -   """
10.29,327.4526,0.0173103, NaN, NaN, NaN,0.04699994," ""- N/A -   """
10.31,328.16,0.01734637, NaN, NaN, NaN,0.04577916," ""- N/A -   """
10.33,328.984,0.0173825, NaN, NaN, NaN,0.0445584," ""- N/A -   """
10.35,329.6913,0.0174186, NaN, NaN, NaN,0.0433376," ""- N/A -   """
[...]
16.51,550.5219,0.0276953, NaN, NaN, NaN,0.0384545," ""- N/A -   """
16.76,560.221,0.0281368, NaN, NaN, NaN,0.0274675," ""- N/A -   """
17.01,568.619,0.0285172, NaN, NaN, NaN,0.0433376," ""- N/A -   """
17.26,578.554,0.02895597, NaN, NaN, NaN,0.0347922," ""- N/A -   """
17.51,587.8987,0.0293725, NaN, NaN, NaN,0.03601294," ""- N/A -   """
17.76,596.533,0.0297668, NaN, NaN, NaN,0.0445584," ""- N/A -   """
18.01,606.8236,0.0302138, NaN, NaN, NaN,0.0323506," ""- N/A -   """
18.26,615.8129,0.0306192, NaN, NaN, NaN,0.0372337," ""- N/A -   """
18.51,624.8023,0.03101354, NaN, NaN, NaN,0.04577916," ""- N/A -   """
18.76,635.0927,0.0314662, NaN, NaN, NaN,0.03112983," ""- N/A -   """
19.01,644.3186,0.03187711, NaN, NaN, NaN,0.0323506," ""- N/A -   """
19.26,653.545,0.0322825, NaN, NaN, NaN,0.0372337," ""- N/A -   """
19.51,663.4801,0.0327129, NaN, NaN, NaN,0.0323506," ""- N/A -   """
19.76,672.1146,0.03310444, NaN, NaN, NaN,0.04211683," ""- N/A -   """
20.01,682.05,0.0335348, NaN, NaN, NaN,0.03601294," ""- N/A -   """
20.26,691.9858,0.03396245, NaN, NaN, NaN,0.03112983," ""- N/A -   """
20.51,700.8569,0.034354, NaN, NaN, NaN,0.0433376," ""- N/A -   """
20.76,711.384,0.0348038, NaN, NaN, NaN,0.0274675," ""- N/A -   """
21.01,720.373,0.0351953, NaN, NaN, NaN,0.0384545," ""- N/A -   """
21.26,729.9539,0.0356063, NaN, NaN, NaN,0.04089605," ""- N/A -   """
21.51,739.771,0.0360311, NaN, NaN, NaN,0.0372337," ""- N/A -   """
21.76,749.2337,0.0364393, NaN, NaN, NaN,0.04211683," ""- N/A -   """
22.01,759.4059,0.0368669, NaN, NaN, NaN,0.0372337," ""- N/A -   """
22.26,769.4597,0.037289, NaN, NaN, NaN,0.0347922," ""- N/A -   """
22.51,778.686,0.03769163, NaN, NaN, NaN,0.04089605," ""- N/A -   """
22.76,788.976,0.038122, NaN, NaN, NaN,0.0347922," ""- N/A -   """
23.01,799.267,0.0385552, NaN, NaN, NaN,0.0274675," ""- N/A -   """
23.26,807.7828,0.0389301, NaN, NaN, NaN,0.04577916," ""- N/A -   """
23.51,818.665,0.03938267, NaN, NaN, NaN,0.03112983," ""- N/A -   """
23.76,828.0088,0.03977975, NaN, NaN, NaN,0.0384545," ""- N/A -   """
24.01,837.4712,0.0401852, NaN, NaN, NaN,0.0445584," ""- N/A -   """
24.26,848.235,0.0406267, NaN, NaN, NaN,0.0323506," ""- N/A -   """
24.51,857.4607,0.0410237, NaN, NaN, NaN,0.04211683," ""- N/A -   """
24.76,868.106,0.04145968, NaN, NaN, NaN,0.0323506," ""- N/A -   """
25.01,878.042,0.041879, NaN, NaN, NaN,0.03112983," ""- N/A -   """
25.26,887.622,0.042276, NaN, NaN, NaN,0.0396753," ""- N/A -   """
25.51,897.794,0.0426981, NaN, NaN, NaN,0.0372337," ""- N/A -   """
25.76,908.2031,0.0431313, NaN, NaN, NaN,0.0299091," ""- N/A -   """
26.01,917.547,0.04352003, NaN, NaN, NaN,0.04211683," ""- N/A -   """
26.26,928.1926,0.04395876, NaN, NaN, NaN,0.0335714," ""- N/A -   """
26.51,938.128,0.0443669, NaN, NaN, NaN,0.0372337," ""- N/A -   """
26.76,947.946,0.0447779, NaN, NaN, NaN,0.0396753," ""- N/A -   """
27.01,958.5908,0.0452139, NaN, NaN, NaN,0.0323506," ""- N/A -   """
27.26,967.8167,0.045597, NaN, NaN, NaN,0.04577916," ""- N/A -   """
27.51,978.699,0.0460413, NaN, NaN, NaN,0.0335714," ""- N/A -   """
27.76,988.871,0.0464578, NaN, NaN, NaN,0.0347922," ""- N/A -   """
28.01,998.2149,0.04684658, NaN, NaN, NaN,0.04699994," ""- N/A -   """
28.26,1009.215,0.04729086, NaN, NaN, NaN,0.0335714," ""- N/A -   """
28.51,1019.68,0.0477102, NaN, NaN, NaN,0.0335714," ""- N/A -   """
28.76,1029.576,0.04811278, NaN, NaN, NaN,0.0384545," ""- N/A -   """
29.01,1040.19,0.048546, NaN, NaN, NaN,0.0323506," ""- N/A -   """
29.26,1050.09,0.0489541, NaN, NaN, NaN,0.0347922," ""- N/A -   """
29.51,1059.866,0.0493568, NaN, NaN, NaN,0.04089605," ""- N/A -   """
29.76,1070.96,0.04979549, NaN, NaN, NaN,0.0323506," ""- N/A -   """
30.01,1080.258,0.0501815, NaN, NaN, NaN,0.0445584," ""- N/A -   """
30.26,1091.71,0.0506285, NaN, NaN, NaN,0.03112983," ""- N/A -   """
30.51,1101.84,0.05104503, NaN, NaN, NaN,0.03112983," ""- N/A -   """
30.76,1111.38,0.05143655, NaN, NaN, NaN,0.0433376," ""- N/A -   """
31.01,1122.71,0.05188361, NaN, NaN, NaN,0.03112983," ""- N/A -   """
31.26,1133.09,0.05229457, NaN, NaN, NaN,0.0323506," ""- N/A -   """
31.51,1142.87,0.0526972, NaN, NaN, NaN,0.0396753," ""- N/A -   """
31.76,1153.598,0.05311649, NaN, NaN, NaN,0.0372337," ""- N/A -   """
32.01,1163.62,0.0535247, NaN, NaN, NaN,0.04089605," ""- N/A -   """
32.26,1174.47,0.0539523, NaN, NaN, NaN,0.03601294," ""- N/A -   """
32.51,1184.842,0.0543688, NaN, NaN, NaN,0.03601294," ""- N/A -   """
32.76,1194.98,0.054777, NaN, NaN, NaN,0.0396753," ""- N/A -   """
33.01,1205.71,0.0552074, NaN, NaN, NaN,0.0335714," ""- N/A -   """
33.26,1216.44,0.05563778, NaN, NaN, NaN,0.0286883," ""- N/A -   """
33.51,1225.63,0.05601264, NaN, NaN, NaN,0.04577916," ""- N/A -   """
33.76,1237.07,0.05646525, NaN, NaN, NaN,0.0299091," ""- N/A -   """
34.01,1246.85,0.05686233, NaN, NaN, NaN,0.0384545," ""- N/A -   """
34.26,1256.87,0.05727051, NaN, NaN, NaN,0.04211683," ""- N/A -   """
34.51,1267.96,0.05771201, NaN, NaN, NaN,0.03112983," ""- N/A -   """
34.76,1277.74,0.0581035, NaN, NaN, NaN,0.04211683," ""- N/A -   """
35.01,1288.83,0.058545, NaN, NaN, NaN,0.0323506," ""- N/A -   """
35.26,1299.09,0.05896155, NaN, NaN, NaN,0.0323506," ""- N/A -   """
35.51,1308.98,0.0593614, NaN, NaN, NaN,0.0396753," ""- N/A -   """
35.76,1319.48,0.0597862, NaN, NaN, NaN,0.03601294," ""- N/A -   """
36.01,1330.33,0.0602166, NaN, NaN, NaN,0.0299091," ""- N/A -   """
36.26,1339.75,0.06059983, NaN, NaN, NaN,0.0445584," ""- N/A -   """
36.51,1351.08,0.06104411, NaN, NaN, NaN,0.0323506," ""- N/A -   """
36.76,1360.98,0.061444, NaN, NaN, NaN,0.0396753," ""- N/A -   """
37.01,1371.11,0.0618577, NaN, NaN, NaN,0.04211683," ""- N/A -   """
37.26,1382.44,0.0622937, NaN, NaN, NaN,0.0323506," ""- N/A -   """
37.51,1391.98,0.06268795, NaN, NaN, NaN,0.04211683," ""- N/A -   """
37.76,1403.55,0.0631322, NaN, NaN, NaN,0.0299091," ""- N/A -   """
38.01,1413.33,0.06352653, NaN, NaN, NaN,0.0396753," ""- N/A -   """
38.26,1423.47,0.0639319, NaN, NaN, NaN,0.0445584," ""- N/A -   """
38.51,1435.15,0.06437899, NaN, NaN, NaN,0.03112983," ""- N/A -   """
38.76,1445.05,0.06478162, NaN, NaN, NaN,0.0372337," ""- N/A -   """
39.01,1455.42,0.06519536, NaN, NaN, NaN,0.0396753," ""- N/A -   """
39.26,1466.52,0.06562853, NaN, NaN, NaN,0.0323506," ""- N/A -   """
39.51,1476.77,0.06603116, NaN, NaN, NaN,0.0372337," ""- N/A -   """
39.76,1487.38,0.06644767, NaN, NaN, NaN,0.0384545," ""- N/A -   """
40.01,1498.24,0.0668808, NaN, NaN, NaN,0.03112983," ""- N/A -   """
40.26,1507.9,0.067264, NaN, NaN, NaN,0.04577916," ""- N/A -   """
40.51,1518.99,0.06770276, NaN, NaN, NaN,0.03601294," ""- N/A -   """
40.76,1529.48,0.06812205, NaN, NaN, NaN,0.03601294," ""- N/A -   """
41.01,1539.62,0.06852469, NaN, NaN, NaN,0.04211683," ""- N/A -   """
41.26,1551.065,0.06897174, NaN, NaN, NaN,0.0274675," ""- N/A -   """
41.51,1561.2,0.06937437, NaN, NaN, NaN,0.0335714," ""- N/A -   """
41.76,1571.58,0.0697881, NaN, NaN, NaN,0.03601294," ""- N/A -   """
42.01,1582.07,0.0702046, NaN, NaN, NaN,0.03601294," ""- N/A -   """
42.26,1591.97,0.0705989, NaN, NaN, NaN,0.0445584," ""- N/A -   """
42.51,1603.178,0.07103764, NaN, NaN, NaN,0.0347922," ""- N/A -   """
42.76,1613.91,0.07146526, NaN, NaN, NaN,0.03112983," ""- N/A -   """
43.01,1623.57,0.07185678, NaN, NaN, NaN,0.04089605," ""- N/A -   """
43.26,1634.3,0.07228718, NaN, NaN, NaN,0.0347922," ""- N/A -   """
43.51,1644.56,0.07271203, NaN, NaN, NaN,0.03112983," ""- N/A -   """
43.76,1653.62,0.07309522, NaN, NaN, NaN,0.04699994," ""- N/A -   """
44.01,1664.712,0.0735506, NaN, NaN, NaN,0.0286883," ""- N/A -   """
44.26,1673.54,0.0739421, NaN, NaN, NaN,0.04089605," ""- N/A -   """
44.51,-18.3998,0.0747113, NaN, NaN, NaN,-0.276506," ""- N/A -   """
44.76,-19.3434,0.07464187, NaN, NaN, NaN,0.111701," ""- N/A -   """
45.01,-19.2254,0.07519722, NaN, NaN, NaN,0.0494415," ""- N/A -   """
45.26,-19.1075,0.07566094, NaN, NaN, NaN,0.0299091," ""- N/A -   """
45.51,-19.1075,0.0760719, NaN, NaN, NaN,0.03112983," ""- N/A -   """
45.76,-19.1075,0.0764717, NaN, NaN, NaN,0.0396753," ""- N/A -   """
46.01,-19.1075,0.0768966, NaN, NaN, NaN,0.03601294," ""- N/A -   """
46.26,-19.1075,0.0773131, NaN, NaN, NaN,0.0347922," ""- N/A -   """
46.51,-19.1075,0.0777129, NaN, NaN, NaN,0.0433376," ""- N/A -   """
46.76,-18.9895,0.0781489, NaN, NaN, NaN,0.0335714," ""- N/A -   """
47.01,-18.9895,0.07855431, NaN, NaN, NaN,0.0396753," ""- N/A -   """
47.26,-18.9895,0.07897638, NaN, NaN, NaN,0.03601294," ""- N/A -   """
47.51,-18.9895,0.07940955, NaN, NaN, NaN,0.0286883," ""- N/A -   """
47.76,-18.9895,0.07979552, NaN, NaN, NaN,0.04211683," ""- N/A -   """
47.831,-18.9895,0.07991213, NaN, NaN, NaN,0.0445584," ""- N/A -   """