File: 2_Tensile_Data/Hamel_ForceTest_Bolt4_Test1.csv
Time, Load (lb), Position (in), AxialStrain (in), TransverseStrain (in), Auxiliary (), Control Out (V), Stress (psi)
0.0,1.06153,0.0, NaN, NaN, NaN,0.04577916," ""- N/A -   """
0.00999999,1.06153,1.66605e-05, NaN, NaN, NaN,0.04577916," ""- N/A -   """
0.06,1.53332,0.000108293, NaN, NaN, NaN,0.04211683," ""- N/A -   """
0.11,2.005107,0.000194373, NaN, NaN, NaN,0.04089605," ""- N/A -   """
0.16,2.241,0.000291559, NaN, NaN, NaN,0.0347922," ""- N/A -   """
0.21,2.83074,0.0003859685, NaN, NaN, NaN,0.0299091," ""- N/A -   """
0.26,3.18458,0.000469271, NaN, NaN, NaN,0.0299091," ""- N/A -   """
0.31,3.53842,0.0005470201, NaN, NaN, NaN,0.0323506," ""- N/A -   """
0.36,3.89227,0.000624769, NaN, NaN, NaN,0.0347922," ""- N/A -   """
0.41,4.246109,0.000705295, NaN, NaN, NaN,0.03601294," ""- N/A -   """
0.46,4.59995,0.0007885975, NaN, NaN, NaN,0.0372337," ""- N/A -   """
0.51,5.071741,0.0008691233, NaN, NaN, NaN,0.0372337," ""- N/A -   """
0.56,5.779426,0.0009440956, NaN, NaN, NaN,0.04211683," ""- N/A -   """
0.61,6.60506,0.001019068, NaN, NaN, NaN,0.0445584," ""- N/A -   """
0.66,7.312743,0.00109404, NaN, NaN, NaN,0.0482207," ""- N/A -   """
0.71,8.37427,0.0011829, NaN, NaN, NaN,0.04577916," ""- N/A -   """
0.76,9.78964,0.00128841, NaN, NaN, NaN,0.0372337," ""- N/A -   """
0.81,11.0871,0.00138282, NaN, NaN, NaN,0.03112983," ""- N/A -   """
0.86,12.3845,0.0014689, NaN, NaN, NaN,0.0299091," ""- N/A -   """
0.91,13.3281,0.001543874, NaN, NaN, NaN,0.0335714," ""- N/A -   """
0.96,14.5075,0.0016244, NaN, NaN, NaN,0.03601294," ""- N/A -   """
1.01,15.687,0.0017077, NaN, NaN, NaN,0.03601294," ""- N/A -   """
1.06,16.9844,0.00179656, NaN, NaN, NaN,0.0335714," ""- N/A -   """
1.11,18.2819,0.00187708, NaN, NaN, NaN,0.0347922," ""- N/A -   """
1.16,19.3434,0.00195483, NaN, NaN, NaN,0.03601294," ""- N/A -   """
1.21,20.52286,0.00202703, NaN, NaN, NaN,0.04089605," ""- N/A -   """
1.26,21.8203,0.002102001, NaN, NaN, NaN,0.0445584," ""- N/A -   """
1.31,23.2357,0.00219086, NaN, NaN, NaN,0.0433376," ""- N/A -   """
1.36,24.65102,0.00227416, NaN, NaN, NaN,0.04211683," ""- N/A -   """
1.41,26.18434,0.00236579, NaN, NaN, NaN,0.0384545," ""- N/A -   """
1.46,27.5997,0.00245465, NaN, NaN, NaN,0.0372337," ""- N/A -   """
1.51,29.133,0.002537951, NaN, NaN, NaN,0.03601294," ""- N/A -   """
1.56,30.5484,0.00262125, NaN, NaN, NaN,0.03601294," ""- N/A -   """
1.61,32.1997,0.00271011, NaN, NaN, NaN,0.0335714," ""- N/A -   """
1.66,33.73298,0.00279341, NaN, NaN, NaN,0.0335714," ""- N/A -   """
1.71,35.1483,0.00287949, NaN, NaN, NaN,0.0323506," ""- N/A -   """
1.76,36.6817,0.002957241, NaN, NaN, NaN,0.0347922," ""- N/A -   """
1.81,38.097,0.00304054, NaN, NaN, NaN,0.0347922," ""- N/A -   """
1.86,39.8662,0.00313218, NaN, NaN, NaN,0.03112983," ""- N/A -   """
1.91,41.39956,0.003209925, NaN, NaN, NaN,0.0347922," ""- N/A -   """
1.96,42.93288,0.00328767, NaN, NaN, NaN,0.0372337," ""- N/A -   """
2.01,44.34825,0.00335987, NaN, NaN, NaN,0.04089605," ""- N/A -   """
2.06,45.6457,0.00343484, NaN, NaN, NaN,0.04577916," ""- N/A -   """
2.11,47.5328,0.00352092, NaN, NaN, NaN,0.0433376," ""- N/A -   """
2.16,49.5379,0.003615331, NaN, NaN, NaN,0.0384545," ""- N/A -   """
2.21,51.30715,0.00370974, NaN, NaN, NaN,0.0347922," ""- N/A -   """
2.26,52.9584,0.003793043, NaN, NaN, NaN,0.0335714," ""- N/A -   """
2.31,54.7276,0.00387912, NaN, NaN, NaN,0.0323506," ""- N/A -   """
2.36,56.2609,0.00395965, NaN, NaN, NaN,0.0347922," ""- N/A -   """
2.41,58.26605,0.004051281, NaN, NaN, NaN,0.0299091," ""- N/A -   """
2.46,60.0353,0.00413736, NaN, NaN, NaN,0.0286883," ""- N/A -   """
2.51,61.56858,0.00421789, NaN, NaN, NaN,0.0299091," ""- N/A -   """
2.56,63.1019,0.00429008, NaN, NaN, NaN,0.0347922," ""- N/A -   """
2.61,64.28137,0.0043595, NaN, NaN, NaN,0.04089605," ""- N/A -   """
2.66,65.81469,0.004434473, NaN, NaN, NaN,0.04577916," ""- N/A -   """
2.71,67.46596,0.004515, NaN, NaN, NaN,0.04699994," ""- N/A -   """
2.76,69.35311,0.004601078, NaN, NaN, NaN,0.0445584," ""- N/A -   """
2.81,71.24027,0.004695487, NaN, NaN, NaN,0.0396753," ""- N/A -   """
2.86,73.00948,0.00478712, NaN, NaN, NaN,0.03601294," ""- N/A -   """
2.91,74.8966,0.004870423, NaN, NaN, NaN,0.03601294," ""- N/A -   """
2.96,76.6659,0.004959279, NaN, NaN, NaN,0.0335714," ""- N/A -   """
3.01,78.55301,0.00505369, NaN, NaN, NaN,0.0286883," ""- N/A -   """
3.06,80.20428,0.005136991, NaN, NaN, NaN,0.0299091," ""- N/A -   """
3.11,81.7376,0.00521752, NaN, NaN, NaN,0.0299091," ""- N/A -   """
3.16,83.50681,0.00530082, NaN, NaN, NaN,0.0299091," ""- N/A -   """
3.21,84.92217,0.00537301, NaN, NaN, NaN,0.0347922," ""- N/A -   """
3.26,86.33755,0.00544521, NaN, NaN, NaN,0.0396753," ""- N/A -   """
3.31,87.9888,0.00552574, NaN, NaN, NaN,0.04211683," ""- N/A -   """
3.36,89.87598,0.00561182, NaN, NaN, NaN,0.0396753," ""- N/A -   """
3.41,91.2913,0.00568401, NaN, NaN, NaN,0.04577916," ""- N/A -   """
3.46,92.94261,0.00576454, NaN, NaN, NaN,0.04699994," ""- N/A -   """
3.51,95.06567,0.005861723, NaN, NaN, NaN,0.04089605," ""- N/A -   """
3.56,97.30666,0.005964463, NaN, NaN, NaN,0.0323506," ""- N/A -   """
3.61,98.9579,0.00605332, NaN, NaN, NaN,0.03112983," ""- N/A -   """
3.66,100.6092,0.006131068, NaN, NaN, NaN,0.0323506," ""- N/A -   """
3.71,102.3784,0.006219924, NaN, NaN, NaN,0.03112983," ""- N/A -   """
3.76,104.03,0.006297673, NaN, NaN, NaN,0.0323506," ""- N/A -   """
3.81,105.563,0.006378199, NaN, NaN, NaN,0.0335714," ""- N/A -   """
3.86,107.214,0.006455948, NaN, NaN, NaN,0.03601294," ""- N/A -   """
3.91,108.983,0.00654203, NaN, NaN, NaN,0.0347922," ""- N/A -   """
3.96,110.517,0.006617, NaN, NaN, NaN,0.0384545," ""- N/A -   """
4.01,111.696,0.00668642, NaN, NaN, NaN,0.0445584," ""- N/A -   """
4.06,113.583,0.006766944, NaN, NaN, NaN,0.04577916," ""- N/A -   """
4.11,115.353,0.00685302, NaN, NaN, NaN,0.04577916," ""- N/A -   """
4.16,117.476,0.00695021, NaN, NaN, NaN,0.0384545," ""- N/A -   """
4.21,119.481,0.00704462, NaN, NaN, NaN,0.0335714," ""- N/A -   """
4.26,121.132,0.0071307, NaN, NaN, NaN,0.0323506," ""- N/A -   """
4.31,122.783,0.00721122, NaN, NaN, NaN,0.0335714," ""- N/A -   """
4.36,124.435,0.00729175, NaN, NaN, NaN,0.0347922," ""- N/A -   """
4.41,126.204,0.00737505, NaN, NaN, NaN,0.0347922," ""- N/A -   """
4.46,128.091,0.007466686, NaN, NaN, NaN,0.0323506," ""- N/A -   """
4.51,129.86,0.007552765, NaN, NaN, NaN,0.0299091," ""- N/A -   """
4.56,131.393,0.00762774, NaN, NaN, NaN,0.0335714," ""- N/A -   """
4.61,133.045,0.007705487, NaN, NaN, NaN,0.03601294," ""- N/A -   """
4.66,134.46,0.007777682, NaN, NaN, NaN,0.04089605," ""- N/A -   """
4.71,136.347,0.007863761, NaN, NaN, NaN,0.0396753," ""- N/A -   """
4.76,137.999,0.007944287, NaN, NaN, NaN,0.04089605," ""- N/A -   """
4.81,139.65,0.00802759, NaN, NaN, NaN,0.04089605," ""- N/A -   """
4.86,141.537,0.008116446, NaN, NaN, NaN,0.0396753," ""- N/A -   """
4.91,143.424,0.008202525, NaN, NaN, NaN,0.0372337," ""- N/A -   """
4.96,145.193,0.008288604, NaN, NaN, NaN,0.03601294," ""- N/A -   """
5.01,146.963,0.008374684, NaN, NaN, NaN,0.0347922," ""- N/A -   """
5.06,148.6138,0.008460763, NaN, NaN, NaN,0.0335714," ""- N/A -   """
5.11,150.383,0.008541289, NaN, NaN, NaN,0.0347922," ""- N/A -   """
5.16,152.388,0.008632922, NaN, NaN, NaN,0.03112983," ""- N/A -   """
5.21,154.0394,0.008716225, NaN, NaN, NaN,0.03112983," ""- N/A -   """
5.26,155.691,0.00879675, NaN, NaN, NaN,0.0323506," ""- N/A -   """
5.31,157.224,0.008874499, NaN, NaN, NaN,0.0347922," ""- N/A -   """
5.36,158.7573,0.008952248, NaN, NaN, NaN,0.0384545," ""- N/A -   """
5.41,160.2906,0.00902722, NaN, NaN, NaN,0.04089605," ""- N/A -   """
5.46,161.942,0.00910497, NaN, NaN, NaN,0.0433376," ""- N/A -   """
5.51,163.475,0.009185495, NaN, NaN, NaN,0.04577916," ""- N/A -   """
5.56,165.4803,0.009271575, NaN, NaN, NaN,0.0433376," ""- N/A -   """
5.61,167.603,0.009374314, NaN, NaN, NaN,0.03601294," ""- N/A -   """
5.66,169.491,0.009460394, NaN, NaN, NaN,0.0335714," ""- N/A -   """
5.71,171.024,0.00954092, NaN, NaN, NaN,0.0347922," ""- N/A -   """
5.76,172.6751,0.009624222, NaN, NaN, NaN,0.0347922," ""- N/A -   """
5.81,174.4443,0.009715854, NaN, NaN, NaN,0.0323506," ""- N/A -   """
5.86,176.449,0.009807488, NaN, NaN, NaN,0.0286883," ""- N/A -   """
5.91,177.865,0.00988246, NaN, NaN, NaN,0.03112983," ""- N/A -   """
5.96,179.516,0.009960209, NaN, NaN, NaN,0.0335714," ""- N/A -   """
6.01,180.931,0.0100324, NaN, NaN, NaN,0.0384545," ""- N/A -   """
6.06,182.3468,0.0101046, NaN, NaN, NaN,0.0433376," ""- N/A -   """
6.11,184.116,0.0101851, NaN, NaN, NaN,0.0445584," ""- N/A -   """
6.16,185.885,0.0102712, NaN, NaN, NaN,0.0433376," ""- N/A -   """
6.21,187.654,0.0103573, NaN, NaN, NaN,0.04211683," ""- N/A -   """
6.26,189.5416,0.0104489, NaN, NaN, NaN,0.0396753," ""- N/A -   """
6.31,191.547,0.0105378, NaN, NaN, NaN,0.03601294," ""- N/A -   """
6.36,193.3159,0.0106239, NaN, NaN, NaN,0.0347922," ""- N/A -   """
6.41,195.085,0.0107155, NaN, NaN, NaN,0.0323506," ""- N/A -   """
6.46,196.854,0.0107988, NaN, NaN, NaN,0.03112983," ""- N/A -   """
6.51,198.624,0.0108876, NaN, NaN, NaN,0.0286883," ""- N/A -   """
6.56,200.393,0.0109709, NaN, NaN, NaN,0.0299091," ""- N/A -   """
6.61,201.808,0.0110431, NaN, NaN, NaN,0.0335714," ""- N/A -   """
6.66,203.2235,0.0111153, NaN, NaN, NaN,0.0384545," ""- N/A -   """
6.71,204.7568,0.0111875, NaN, NaN, NaN,0.0445584," ""- N/A -   """
6.76,206.526,0.0112681, NaN, NaN, NaN,0.0445584," ""- N/A -   """
6.81,208.295,0.0113541, NaN, NaN, NaN,0.0445584," ""- N/A -   """
6.86,210.182,0.0114374, NaN, NaN, NaN,0.0433376," ""- N/A -   """
6.91,212.07,0.0115263, NaN, NaN, NaN,0.04089605," ""- N/A -   """
6.96,214.1926,0.0116235, NaN, NaN, NaN,0.03601294," ""- N/A -   """
6.99,215.372,0.0116846, NaN, NaN, NaN,0.03112983," ""- N/A -   """
7,215.726,0.011704, NaN, NaN, NaN,0.0286883," ""- N/A -   """
7.01,216.198,0.0117207, NaN, NaN, NaN,0.0286883," ""- N/A -   """
7.09,218.793,0.0118512, NaN, NaN, NaN,0.0299091," ""- N/A -   """
7.17,221.269,0.0119761, NaN, NaN, NaN,0.0347922," ""- N/A -   """
7.25,223.6284,0.0121011, NaN, NaN, NaN,0.0372337," ""- N/A -   """
7.33,226.3412,0.0122371, NaN, NaN, NaN,0.0372337," ""- N/A -   """
7.41,228.818,0.0123565, NaN, NaN, NaN,0.04211683," ""- N/A -   """
7.49,231.295,0.0124871, NaN, NaN, NaN,0.0433376," ""- N/A -   """
7.57,234.244,0.012637, NaN, NaN, NaN,0.0372337," ""- N/A -   """
7.65,237.192,0.0127842, NaN, NaN, NaN,0.0299091," ""- N/A -   """
7.73,239.433,0.01291745, NaN, NaN, NaN,0.0299091," ""- N/A -   """
7.81,241.438,0.0130341, NaN, NaN, NaN,0.0372337," ""- N/A -   """
7.89,244.15,0.0131785, NaN, NaN, NaN,0.0335714," ""- N/A -   """
7.97,246.388,0.013309, NaN, NaN, NaN,0.0347922," ""- N/A -   """
8.05,248.273,0.0134311, NaN, NaN, NaN,0.0396753," ""- N/A -   """
8.13,250.512,0.0135644, NaN, NaN, NaN,0.04089605," ""- N/A -   """
8.21,252.751,0.01369494, NaN, NaN, NaN,0.04089605," ""- N/A -   """
8.29,255.343,0.0138393, NaN, NaN, NaN,0.0372337," ""- N/A -   """
8.37,257.582,0.0139754, NaN, NaN, NaN,0.0347922," ""- N/A -   """
8.45,259.82,0.0141142, NaN, NaN, NaN,0.0335714," ""- N/A -   """
8.53,261.9413,0.0142447, NaN, NaN, NaN,0.0347922," ""- N/A -   """
8.61,264.0622,0.0143697, NaN, NaN, NaN,0.0372337," ""- N/A -   """
8.69,266.301,0.0145058, NaN, NaN, NaN,0.03601294," ""- N/A -   """
8.77,268.304,0.0146335, NaN, NaN, NaN,0.0384545," ""- N/A -   """
8.85,270.66,0.014764, NaN, NaN, NaN,0.0396753," ""- N/A -   """
8.93,273.1348,0.0149028, NaN, NaN, NaN,0.0372337," ""- N/A -   """
9.01,275.609,0.0150417, NaN, NaN, NaN,0.0347922," ""- N/A -   """
9.09,277.73,0.01517495, NaN, NaN, NaN,0.03601294," ""- N/A -   """
9.17,279.9687,0.0153055, NaN, NaN, NaN,0.03601294," ""- N/A -   """
9.25,282.561,0.0154498, NaN, NaN, NaN,0.03112983," ""- N/A -   """
9.33,284.328,0.0155692, NaN, NaN, NaN,0.0384545," ""- N/A -   """
9.41,286.8026,0.0157053, NaN, NaN, NaN,0.03601294," ""- N/A -   """
9.49,288.688,0.0158192, NaN, NaN, NaN,0.0445584," ""- N/A -   """
9.57,291.044,0.01595244, NaN, NaN, NaN,0.04577916," ""- N/A -   """
9.65,293.99,0.0161024, NaN, NaN, NaN,0.0372337," ""- N/A -   """
9.73,296.464,0.0162468, NaN, NaN, NaN,0.0323506," ""- N/A -   """
9.81,298.821,0.0163856, NaN, NaN, NaN,0.0299091," ""- N/A -   """
9.89,301.295,0.0165189, NaN, NaN, NaN,0.0299091," ""- N/A -   """
9.97,303.5339,0.0166466, NaN, NaN, NaN,0.0323506," ""- N/A -   """
10.05,305.419,0.0167605, NaN, NaN, NaN,0.04089605," ""- N/A -   """
10.13,307.658,0.0168854, NaN, NaN, NaN,0.04577916," ""- N/A -   """
10.21,310.25,0.0170215, NaN, NaN, NaN,0.0433376," ""- N/A -   """
10.29,312.724,0.0171575, NaN, NaN, NaN,0.04211683," ""- N/A -   """
10.37,315.67,0.0173103, NaN, NaN, NaN,0.0335714," ""- N/A -   """
10.45,318.262,0.0174519, NaN, NaN, NaN,0.0299091," ""- N/A -   """
10.53,320.854,0.0175879, NaN, NaN, NaN,0.0286883," ""- N/A -   """
10.61,322.8574,0.0177101, NaN, NaN, NaN,0.0347922," ""- N/A -   """
10.69,325.2139,0.0178406, NaN, NaN, NaN,0.0347922," ""- N/A -   """
10.77,327.8061,0.0179711, NaN, NaN, NaN,0.03601294," ""- N/A -   """
10.85,329.6913,0.0180878, NaN, NaN, NaN,0.0445584," ""- N/A -   """
10.93,332.283,0.018221, NaN, NaN, NaN,0.0433376," ""- N/A -   """
11.01,335.465,0.0183765, NaN, NaN, NaN,0.0335714," ""- N/A -   """
11.09,338.057,0.0185182, NaN, NaN, NaN,0.03112983," ""- N/A -   """
11.17,340.178,0.0186403, NaN, NaN, NaN,0.0347922," ""- N/A -   """
11.25,342.652,0.0187681, NaN, NaN, NaN,0.0372337," ""- N/A -   """
11.33,345.5978,0.0189125, NaN, NaN, NaN,0.0323506," ""- N/A -   """
11.41,347.837,0.01903741, NaN, NaN, NaN,0.0372337," ""- N/A -   """
11.49,349.9574,0.019154, NaN, NaN, NaN,0.0433376," ""- N/A -   """
11.57,352.785,0.0192956, NaN, NaN, NaN,0.0396753," ""- N/A -   """
11.65,355.3774,0.0194317, NaN, NaN, NaN,0.0396753," ""- N/A -   """
11.73,358.0874,0.0195733, NaN, NaN, NaN,0.0347922," ""- N/A -   """
11.81,360.68,0.01970383, NaN, NaN, NaN,0.03601294," ""- N/A -   """
11.89,363.5074,0.019851, NaN, NaN, NaN,0.0299091," ""- N/A -   """
11.97,365.982,0.0199843, NaN, NaN, NaN,0.0299091," ""- N/A -   """
12.05,368.4561,0.020112, NaN, NaN, NaN,0.0323506," ""- N/A -   """
12.13,371.048,0.0202453, NaN, NaN, NaN,0.0335714," ""- N/A -   """
12.21,373.287,0.0203647, NaN, NaN, NaN,0.0384545," ""- N/A -   """
12.29,375.526,0.0204841, NaN, NaN, NaN,0.0445584," ""- N/A -   """
12.37,378.353,0.0206146, NaN, NaN, NaN,0.04577916," ""- N/A -   """
12.45,381.5348,0.02077288, NaN, NaN, NaN,0.03601294," ""- N/A -   """
12.53,384.3626,0.0209117, NaN, NaN, NaN,0.0335714," ""- N/A -   """
12.61,386.955,0.021045, NaN, NaN, NaN,0.0347922," ""- N/A -   """
12.69,390.018,0.0211922, NaN, NaN, NaN,0.0274675," ""- N/A -   """
12.77,392.257,0.0213116, NaN, NaN, NaN,0.0347922," ""- N/A -   """
12.85,394.3778,0.0214226, NaN, NaN, NaN,0.0433376," ""- N/A -   """
12.93,396.734,0.02154482, NaN, NaN, NaN,0.0482207," ""- N/A -   """
13.01,399.798,0.02168921, NaN, NaN, NaN,0.0433376," ""- N/A -   """
13.09,403.097,0.0218392, NaN, NaN, NaN,0.03601294," ""- N/A -   """
13.17,405.807,0.0219752, NaN, NaN, NaN,0.0347922," ""- N/A -   """
13.25,408.988,0.0221224, NaN, NaN, NaN,0.0286883," ""- N/A -   """
13.33,411.58,0.0222584, NaN, NaN, NaN,0.0274675," ""- N/A -   """
13.41,414.055,0.0223806, NaN, NaN, NaN,0.0323506," ""- N/A -   """
13.49,416.176,0.0224972, NaN, NaN, NaN,0.0396753," ""- N/A -   """
13.57,418.886,0.0226222, NaN, NaN, NaN,0.0433376," ""- N/A -   """
13.65,421.713,0.0227527, NaN, NaN, NaN,0.0445584," ""- N/A -   """
13.73,424.659,0.0228915, NaN, NaN, NaN,0.0433376," ""- N/A -   """
13.81,428.194,0.0230498, NaN, NaN, NaN,0.0323506," ""- N/A -   """
13.89,430.904,0.0231859, NaN, NaN, NaN,0.03112983," ""- N/A -   """
13.97,433.614,0.0233164, NaN, NaN, NaN,0.0323506," ""- N/A -   """
14.05,436.2061,0.0234386, NaN, NaN, NaN,0.03601294," ""- N/A -   """
14.13,439.152,0.02356907, NaN, NaN, NaN,0.0372337," ""- N/A -   """
14.21,441.508,0.0236912, NaN, NaN, NaN,0.04211683," ""- N/A -   """
14.29,444.218,0.0238162, NaN, NaN, NaN,0.04577916," ""- N/A -   """
14.37,447.517,0.02396337, NaN, NaN, NaN,0.04089605," ""- N/A -   """
14.45,451.0522,0.0241244, NaN, NaN, NaN,0.0286883," ""- N/A -   """
14.53,453.998,0.0242605, NaN, NaN, NaN,0.0262467," ""- N/A -   """
14.61,456.237,0.0243716, NaN, NaN, NaN,0.03601294," ""- N/A -   """
14.69,458.829,0.0245021, NaN, NaN, NaN,0.0372337," ""- N/A -   """
14.77,461.892,0.02463812, NaN, NaN, NaN,0.03601294," ""- N/A -   """
14.85,464.367,0.0247631, NaN, NaN, NaN,0.04089605," ""- N/A -   """
14.93,467.194,0.0248908, NaN, NaN, NaN,0.0433376," ""- N/A -   """
15.01,470.258,0.02503242, NaN, NaN, NaN,0.0384545," ""- N/A -   """
15.09,473.439,0.0251768, NaN, NaN, NaN,0.0335714," ""- N/A -   """
15.17,476.267,0.0253073, NaN, NaN, NaN,0.03601294," ""- N/A -   """
15.25,479.0948,0.0254378, NaN, NaN, NaN,0.03601294," ""- N/A -   """
15.33,482.158,0.02557944, NaN, NaN, NaN,0.0323506," ""- N/A -   """
15.41,484.986,0.02570717, NaN, NaN, NaN,0.0347922," ""- N/A -   """
15.49,487.932,0.0258432, NaN, NaN, NaN,0.0335714," ""- N/A -   """
15.57,490.5239,0.0259682, NaN, NaN, NaN,0.0384545," ""- N/A -   """
15.65,493.2339,0.0260931, NaN, NaN, NaN,0.04089605," ""- N/A -   """
15.73,496.062,0.0262181, NaN, NaN, NaN,0.0445584," ""- N/A -   """
15.81,499.361,0.0263625, NaN, NaN, NaN,0.04089605," ""- N/A -   """
15.89,502.778,0.0265152, NaN, NaN, NaN,0.03112983," ""- N/A -   """
[...]
19.17,626.5765,0.0319576, NaN, NaN, NaN,0.04211683," ""- N/A -   """
19.26,630.48,0.03212424, NaN, NaN, NaN,0.03601294," ""- N/A -   """
19.35,634.1464,0.032277, NaN, NaN, NaN,0.0335714," ""- N/A -   """
19.44,637.577,0.0324214, NaN, NaN, NaN,0.03601294," ""- N/A -   """
19.53,641.48,0.032588, NaN, NaN, NaN,0.0286883," ""- N/A -   """
19.62,644.4369,0.0327212, NaN, NaN, NaN,0.03601294," ""- N/A -   """
19.71,647.512,0.0328518, NaN, NaN, NaN,0.0445584," ""- N/A -   """
19.8,650.9424,0.03299892, NaN, NaN, NaN,0.04577916," ""- N/A -   """
19.89,655.2,0.0331683, NaN, NaN, NaN,0.0384545," ""- N/A -   """
19.98,658.8672,0.0333294, NaN, NaN, NaN,0.0323506," ""- N/A -   """
20.07,663.007,0.03349318, NaN, NaN, NaN,0.0262467," ""- N/A -   """
20.16,666.319,0.0336403, NaN, NaN, NaN,0.0286883," ""- N/A -   """
20.25,669.631,0.0337792, NaN, NaN, NaN,0.0323506," ""- N/A -   """
20.34,672.3512,0.03390414, NaN, NaN, NaN,0.0433376," ""- N/A -   """
20.43,676.1361,0.0340541, NaN, NaN, NaN,0.0445584," ""- N/A -   """
20.52,679.685,0.0342013, NaN, NaN, NaN,0.0445584," ""- N/A -   """
20.61,684.061,0.03437619, NaN, NaN, NaN,0.0347922," ""- N/A -   """
20.7,687.7277,0.03453446, NaN, NaN, NaN,0.03112983," ""- N/A -   """
20.79,691.2761,0.0346816, NaN, NaN, NaN,0.0323506," ""- N/A -   """
20.88,694.706,0.03482047, NaN, NaN, NaN,0.03601294," ""- N/A -   """
20.97,698.373,0.03496764, NaN, NaN, NaN,0.0372337," ""- N/A -   """
21.06,701.33,0.0351037, NaN, NaN, NaN,0.0433376," ""- N/A -   """
21.15,704.76,0.03524531, NaN, NaN, NaN,0.04699994," ""- N/A -   """
21.24,709.137,0.035423, NaN, NaN, NaN,0.0347922," ""- N/A -   """
21.33,713.276,0.03558963, NaN, NaN, NaN,0.0274675," ""- N/A -   """
21.42,716.5882,0.03572847, NaN, NaN, NaN,0.0323506," ""- N/A -   """
21.51,720.1366,0.03587841, NaN, NaN, NaN,0.0347922," ""- N/A -   """
21.6,723.922,0.0360284, NaN, NaN, NaN,0.0335714," ""- N/A -   """
21.69,726.997,0.0361644, NaN, NaN, NaN,0.04089605," ""- N/A -   """
21.78,730.545,0.0363088, NaN, NaN, NaN,0.04211683," ""- N/A -   """
21.87,734.3304,0.03646153, NaN, NaN, NaN,0.04211683," ""- N/A -   """
21.96,738.2336,0.0366198, NaN, NaN, NaN,0.0384545," ""- N/A -   """
22.05,742.0186,0.0367725, NaN, NaN, NaN,0.0372337," ""- N/A -   """
22.14,745.6853,0.03692802, NaN, NaN, NaN,0.0347922," ""- N/A -   """
22.23,749.352,0.03707519, NaN, NaN, NaN,0.0347922," ""- N/A -   """
22.32,753.019,0.03722791, NaN, NaN, NaN,0.0335714," ""- N/A -   """
22.41,756.331,0.03736675, NaN, NaN, NaN,0.0384545," ""- N/A -   """
22.5,759.7607,0.0375084, NaN, NaN, NaN,0.04211683," ""- N/A -   """
22.59,763.4274,0.0376555, NaN, NaN, NaN,0.0433376," ""- N/A -   """
22.68,767.804,0.0378332, NaN, NaN, NaN,0.03112983," ""- N/A -   """
22.77,771.4705,0.0379776, NaN, NaN, NaN,0.0335714," ""- N/A -   """
22.86,775.1372,0.0381331, NaN, NaN, NaN,0.03112983," ""- N/A -   """
22.95,778.804,0.03828308, NaN, NaN, NaN,0.03112983," ""- N/A -   """
23.04,782.1158,0.0384247, NaN, NaN, NaN,0.0347922," ""- N/A -   """
23.13,785.4276,0.0385552, NaN, NaN, NaN,0.0433376," ""- N/A -   """
23.22,788.858,0.0386996, NaN, NaN, NaN,0.04577916," ""- N/A -   """
23.31,793.1159,0.03886897, NaN, NaN, NaN,0.0372337," ""- N/A -   """
23.4,796.783,0.0390217, NaN, NaN, NaN,0.03601294," ""- N/A -   """
23.49,800.804,0.03918275, NaN, NaN, NaN,0.0323506," ""- N/A -   """
23.58,804.5892,0.03933269, NaN, NaN, NaN,0.03112983," ""- N/A -   """
23.67,807.901,0.0394715, NaN, NaN, NaN,0.03601294," ""- N/A -   """
23.76,810.9763,0.0396048, NaN, NaN, NaN,0.0433376," ""- N/A -   """
23.85,814.406,0.03974643, NaN, NaN, NaN,0.04699994," ""- N/A -   """
23.94,818.428,0.0399019, NaN, NaN, NaN,0.0445584," ""- N/A -   """
24.03,822.686,0.04007686, NaN, NaN, NaN,0.0335714," ""- N/A -   """
24.12,826.8259,0.04024069, NaN, NaN, NaN,0.0274675," ""- N/A -   """
24.21,830.3744,0.0403879, NaN, NaN, NaN,0.0286883," ""- N/A -   """
24.3,833.9228,0.0405267, NaN, NaN, NaN,0.0335714," ""- N/A -   """
24.39,837.4712,0.0406739, NaN, NaN, NaN,0.0347922," ""- N/A -   """
24.48,840.6648,0.0408071, NaN, NaN, NaN,0.0433376," ""- N/A -   """
24.57,844.332,0.04095154, NaN, NaN, NaN,0.04577916," ""- N/A -   """
24.66,848.9445,0.041132, NaN, NaN, NaN,0.0323506," ""- N/A -   """
24.75,852.729,0.0412847, NaN, NaN, NaN,0.0299091," ""- N/A -   """
24.84,855.923,0.04142081, NaN, NaN, NaN,0.0372337," ""- N/A -   """
24.93,859.8263,0.0415763, NaN, NaN, NaN,0.0347922," ""- N/A -   """
25.02,863.611,0.04172625, NaN, NaN, NaN,0.0335714," ""- N/A -   """
25.11,866.6866,0.0418595, NaN, NaN, NaN,0.04089605," ""- N/A -   """
25.2,870.59,0.04201503, NaN, NaN, NaN,0.0384545," ""- N/A -   """
25.29,874.3748,0.042165, NaN, NaN, NaN,0.0384545," ""- N/A -   """
25.38,878.16,0.0423205, NaN, NaN, NaN,0.03601294," ""- N/A -   """
25.47,881.827,0.04247042, NaN, NaN, NaN,0.03601294," ""- N/A -   """
25.56,885.8481,0.0426287, NaN, NaN, NaN,0.0323506," ""- N/A -   """
25.65,889.633,0.0427842, NaN, NaN, NaN,0.03112983," ""- N/A -   """
25.74,893.063,0.04292303, NaN, NaN, NaN,0.0347922," ""- N/A -   """
25.83,896.4934,0.0430646, NaN, NaN, NaN,0.0396753," ""- N/A -   """
25.92,899.805,0.04320348, NaN, NaN, NaN,0.0445584," ""- N/A -   """
26.01,903.7085,0.0433534, NaN, NaN, NaN,0.0433376," ""- N/A -   """
26.1,908.2031,0.0435284, NaN, NaN, NaN,0.0335714," ""- N/A -   """
26.19,911.752,0.04367831, NaN, NaN, NaN,0.0347922," ""- N/A -   """
26.28,915.537,0.0438255, NaN, NaN, NaN,0.03601294," ""- N/A -   """
26.37,919.558,0.043981, NaN, NaN, NaN,0.0323506," ""- N/A -   """
26.46,922.87,0.04412259, NaN, NaN, NaN,0.0372337," ""- N/A -   """
26.55,926.1818,0.04425587, NaN, NaN, NaN,0.0445584," ""- N/A -   """
26.64,929.967,0.0444086, NaN, NaN, NaN,0.0433376," ""- N/A -   """
26.73,934.2249,0.04457242, NaN, NaN, NaN,0.0372337," ""- N/A -   """
26.82,938.3648,0.0447307, NaN, NaN, NaN,0.0323506," ""- N/A -   """
26.91,942.3863,0.04489175, NaN, NaN, NaN,0.0274675," ""- N/A -   """
27,946.053,0.0450417, NaN, NaN, NaN,0.0274675," ""- N/A -   """
27.09,949.128,0.04516665, NaN, NaN, NaN,0.0384545," ""- N/A -   """
27.18,952.3219,0.0453027, NaN, NaN, NaN,0.0445584," ""- N/A -   """
27.27,956.2252,0.04545543, NaN, NaN, NaN,0.0445584," ""- N/A -   """
27.36,960.1284,0.04560815, NaN, NaN, NaN,0.0433376," ""- N/A -   """
27.45,964.7414,0.0457831, NaN, NaN, NaN,0.0323506," ""- N/A -   """
27.54,968.6447,0.04593581, NaN, NaN, NaN,0.0299091," ""- N/A -   """
27.63,972.0748,0.0460774, NaN, NaN, NaN,0.0347922," ""- N/A -   """
27.72,975.505,0.04621348, NaN, NaN, NaN,0.0396753," ""- N/A -   """
27.81,979.408,0.04636343, NaN, NaN, NaN,0.0396753," ""- N/A -   """
27.9,982.957,0.0465078, NaN, NaN, NaN,0.04211683," ""- N/A -   """
27.99,986.742,0.0466578, NaN, NaN, NaN,0.04211683," ""- N/A -   """
28.08,991.473,0.0468327, NaN, NaN, NaN,0.03112983," ""- N/A -   """
28.17,995.731,0.04699375, NaN, NaN, NaN,0.0262467," ""- N/A -   """
28.26,998.688,0.04712426, NaN, NaN, NaN,0.0347922," ""- N/A -   """
28.35,1002.59,0.0472742, NaN, NaN, NaN,0.0347922," ""- N/A -   """
28.44,1006.14,0.0474158, NaN, NaN, NaN,0.0384545," ""- N/A -   """
28.53,1009.33,0.0475491, NaN, NaN, NaN,0.04577916," ""- N/A -   """
28.62,1013.954,0.04771848, NaN, NaN, NaN,0.0372337," ""- N/A -   """
28.71,1017.77,0.0478684, NaN, NaN, NaN,0.0372337," ""- N/A -   """
28.8,1021.71,0.0480211, NaN, NaN, NaN,0.03601294," ""- N/A -   """
28.89,1025.64,0.04817387, NaN, NaN, NaN,0.0347922," ""- N/A -   """
28.98,1029.46,0.04832659, NaN, NaN, NaN,0.0335714," ""- N/A -   """
29.07,1033.15,0.04847376, NaN, NaN, NaN,0.0347922," ""- N/A -   """
29.16,1037.09,0.04862648, NaN, NaN, NaN,0.0335714," ""- N/A -   """
29.25,1040.55,0.0487653, NaN, NaN, NaN,0.0396753," ""- N/A -   """
29.34,1044.244,0.04890693, NaN, NaN, NaN,0.04211683," ""- N/A -   """
29.43,1048.3,0.0490597, NaN, NaN, NaN,0.04089605," ""- N/A -   """
29.52,1052.59,0.049229, NaN, NaN, NaN,0.0335714," ""- N/A -   """
29.61,1056.41,0.04937898, NaN, NaN, NaN,0.0323506," ""- N/A -   """
29.7,1060.58,0.0495345, NaN, NaN, NaN,0.0299091," ""- N/A -   """
29.79,1064.28,0.0496844, NaN, NaN, NaN,0.0299091," ""- N/A -   """
29.88,1067.38,0.04981493, NaN, NaN, NaN,0.0384545," ""- N/A -   """
29.97,1070.96,0.04995099, NaN, NaN, NaN,0.0445584," ""- N/A -   """
30.06,1074.77,0.0501009, NaN, NaN, NaN,0.0445584," ""- N/A -   """
30.15,1079.3,0.05027032, NaN, NaN, NaN,0.03601294," ""- N/A -   """
30.24,1083.24,0.05042859, NaN, NaN, NaN,0.0323506," ""- N/A -   """
30.33,1087.53,0.0505896, NaN, NaN, NaN,0.0274675," ""- N/A -   """
30.42,1091.11,0.050734, NaN, NaN, NaN,0.0299091," ""- N/A -   """
30.433,1091.71,0.0507535, NaN, NaN, NaN,0.0323506," ""- N/A -   """