File: 2_Tensile_Data/Hamel_ForceTest_Bolt9_Test7.csv
Time, Load (lb), Position (in), AxialStrain (in), TransverseStrain (in), Auxiliary (), Control Out (V), Stress (psi)
0.0, 13.446, 0.0, NaN, NaN, NaN, -0.007935055, "- N/A -   "
0.01, 13.446, 0.0, NaN, NaN, NaN, -6.103888E-4, "- N/A -   "
0.02, 13.446, 0.0, NaN, NaN, NaN, 0.006714277, "- N/A -   "
0.03, 13.446, 2.776752E-6, NaN, NaN, NaN, 0.0213636, "- N/A -   "
0.04, 13.446, 5.553504E-6, NaN, NaN, NaN, 0.0384545, "- N/A -   "
0.05, 13.446, 1.38838e-05, NaN, NaN, NaN, 0.0543246, "- N/A -   "
0.06, 13.564, 2.49908e-05, NaN, NaN, NaN, 0.0689739, "- N/A -   "
0.07, 13.9178, 4.16513e-05, NaN, NaN, NaN, 0.08118171, "- N/A -   "
0.08, 14.2716, 6.386529E-5, NaN, NaN, NaN, 0.09094793, "- N/A -   "
0.09, 14.5075, 9.16328e-05, NaN, NaN, NaN, 0.0982726, "- N/A -   "
0.1, 14.8614, 0.000124954, NaN, NaN, NaN, 0.104376, "- N/A -   "
0.11, 15.3332, 1.554981E-4, NaN, NaN, NaN, 0.0982726, "- N/A -   "
0.12, 15.687, 0.000186042, NaN, NaN, NaN, 0.09216871, "- N/A -   "
0.13, 15.9229, 0.000211033, NaN, NaN, NaN, 0.08850638, "- N/A -   "
0.14, 16.27675, 2.360239E-4, NaN, NaN, NaN, 0.084844, "- N/A -   "
0.15, 16.5126, 2.582379E-4, NaN, NaN, NaN, 0.08240249, "- N/A -   "
0.16, 16.74854, 0.000280452, NaN, NaN, NaN, 0.0799609, "- N/A -   "
0.17, 17.1024, 3.054427E-4, NaN, NaN, NaN, 0.0762986, "- N/A -   "
0.18, 17.3383, 0.000327657, NaN, NaN, NaN, 0.07385705, "- N/A -   "
0.19, 17.6921, 0.000349871, NaN, NaN, NaN, 0.07141549, "- N/A -   "
0.2, 17.928, 0.000372085, NaN, NaN, NaN, 0.0701947, "- N/A -   "
0.21, 18.046, 0.000391522, NaN, NaN, NaN, 0.06775316, "- N/A -   "
0.22, 18.2819, 0.000410959, NaN, NaN, NaN, 0.06653238, "- N/A -   "
0.23, 18.5178, 4.331733E-4, NaN, NaN, NaN, 0.0653116, "- N/A -   "
0.24, 18.8716, 0.000452611, NaN, NaN, NaN, 0.06287005, "- N/A -   "
0.25, 19.1075, 0.000474825, NaN, NaN, NaN, 0.06164927, "- N/A -   "
0.26, 19.2254, 4.970386E-4, NaN, NaN, NaN, 0.0592077, "- N/A -   "
0.27, 19.57928, 5.164758E-4, NaN, NaN, NaN, 0.05676616, "- N/A -   "
0.28, 19.6972, 5.359131E-4, NaN, NaN, NaN, 0.0555454, "- N/A -   "
0.29, 19.9331, 5.553504E-4, NaN, NaN, NaN, 0.0543246, "- N/A -   "
0.3, 20.287, 0.000580341, NaN, NaN, NaN, 0.05188305, "- N/A -   "
0.31, 20.4049, 0.000602555, NaN, NaN, NaN, 0.0494415, "- N/A -   "
0.32, 20.7588, 0.000624769, NaN, NaN, NaN, 0.04699994, "- N/A -   "
0.33, 20.8767, 6.442064E-4, NaN, NaN, NaN, 0.0445584, "- N/A -   "
0.34, 21.2305, 0.00066642, NaN, NaN, NaN, 0.04211683, "- N/A -   "
0.35, 21.46644, 0.000688634, NaN, NaN, NaN, 0.0396753, "- N/A -   "
0.36, 21.7023, 7.108485E-4, NaN, NaN, NaN, 0.0372337, "- N/A -   "
0.37, 21.93823, 7.302857E-4, NaN, NaN, NaN, 0.03601294, "- N/A -   "
0.38, 22.0562, 7.49723E-4, NaN, NaN, NaN, 0.0347922, "- N/A -   "
0.39, 22.29207, 7.663835E-4, NaN, NaN, NaN, 0.03601294, "- N/A -   "
0.45, 23.3536, 0.000860793, NaN, NaN, NaN, 0.0372337, "- N/A -   "
0.51, 24.5331, 9.635329E-4, NaN, NaN, NaN, 0.0372337, "- N/A -   "
0.57, 25.7125, 0.00106905, NaN, NaN, NaN, 0.0335714, "- N/A -   "
0.63, 26.7741, 0.00117179, NaN, NaN, NaN, 0.0323506, "- N/A -   "
0.69, 27.8356, 0.0012662, NaN, NaN, NaN, 0.0347922, "- N/A -   "
0.75, 28.7792, 0.00135228, NaN, NaN, NaN, 0.04089605, "- N/A -   "
0.81, 29.84071, 0.001443911, NaN, NaN, NaN, 0.0445584, "- N/A -   "
0.87, 31.0202, 0.001543874, NaN, NaN, NaN, 0.0445584, "- N/A -   "
0.93, 32.5535, 0.00165772, NaN, NaN, NaN, 0.0384545, "- N/A -   "
0.99, 33.73298, 0.00176324, NaN, NaN, NaN, 0.03601294, "- N/A -   "
1.05, 35.0304, 0.00186875, NaN, NaN, NaN, 0.0335714, "- N/A -   "
1.11, 36.44577, 0.00197705, NaN, NaN, NaN, 0.0299091, "- N/A -   "
1.17, 37.8611, 0.002082564, NaN, NaN, NaN, 0.0286883, "- N/A -   "
1.23, 39.04061, 0.002182527, NaN, NaN, NaN, 0.0274675, "- N/A -   "
1.29, 40.33803, 0.00227694, NaN, NaN, NaN, 0.03112983, "- N/A -   "
1.35, 41.39956, 0.00235746, NaN, NaN, NaN, 0.0384545, "- N/A -   "
1.41, 42.697, 0.00244632, NaN, NaN, NaN, 0.0433376, "- N/A -   "
1.47, 44.2303, 0.00254906, NaN, NaN, NaN, 0.0433376, "- N/A -   "
1.53, 45.6457, 0.00264624, NaN, NaN, NaN, 0.0445584, "- N/A -   "
1.59, 47.061, 0.002743431, NaN, NaN, NaN, 0.0445584, "- N/A -   "
1.65, 48.7123, 0.002854501, NaN, NaN, NaN, 0.04089605, "- N/A -   "
1.71, 50.5995, 0.00297112, NaN, NaN, NaN, 0.0323506, "- N/A -   "
1.77, 52.25073, 0.00307664, NaN, NaN, NaN, 0.0299091, "- N/A -   "
1.83, 53.902, 0.0031766, NaN, NaN, NaN, 0.0299091, "- N/A -   "
1.89, 55.3174, 0.00326546, NaN, NaN, NaN, 0.0347922, "- N/A -   "
1.95, 57.08658, 0.00336265, NaN, NaN, NaN, 0.0372337, "- N/A -   "
2.01, 58.7378, 0.003459833, NaN, NaN, NaN, 0.0372337, "- N/A -   "
2.07, 60.3891, 0.0035598, NaN, NaN, NaN, 0.0384545, "- N/A -   "
2.13, 61.9224, 0.00365143, NaN, NaN, NaN, 0.04211683, "- N/A -   "
2.19, 63.5737, 0.00374306, NaN, NaN, NaN, 0.0445584, "- N/A -   "
2.25, 65.3429, 0.00384025, NaN, NaN, NaN, 0.04577916, "- N/A -   "
2.31, 67.46596, 0.00395965, NaN, NaN, NaN, 0.0372337, "- N/A -   "
2.37, 69.47106, 0.00407349, NaN, NaN, NaN, 0.03112983, "- N/A -   "
2.43, 71.24027, 0.00417901, NaN, NaN, NaN, 0.0299091, "- N/A -   "
2.49, 72.89154, 0.00426787, NaN, NaN, NaN, 0.0335714, "- N/A -   "
2.55, 74.66075, 0.004365054, NaN, NaN, NaN, 0.0347922, "- N/A -   "
2.61, 76.6659, 0.004473347, NaN, NaN, NaN, 0.0323506, "- N/A -   "
2.67, 78.31712, 0.004567757, NaN, NaN, NaN, 0.0335714, "- N/A -   "
2.73, 79.85043, 0.004656613, NaN, NaN, NaN, 0.0396753, "- N/A -   "
2.79, 81.5017, 0.004745469, NaN, NaN, NaN, 0.0433376, "- N/A -   "
2.85, 83.50681, 0.004853762, NaN, NaN, NaN, 0.0396753, "- N/A -   "
2.91, 85.39397, 0.004956502, NaN, NaN, NaN, 0.0384545, "- N/A -   "
2.97, 87.16318, 0.005056465, NaN, NaN, NaN, 0.0384545, "- N/A -   "
3.03, 89.16828, 0.00516476, NaN, NaN, NaN, 0.03601294, "- N/A -   "
3.09, 90.9375, 0.00526472, NaN, NaN, NaN, 0.03601294, "- N/A -   "
3.15, 93.0606, 0.00537024, NaN, NaN, NaN, 0.0323506, "- N/A -   "
3.21, 94.8298, 0.0054702, NaN, NaN, NaN, 0.0323506, "- N/A -   "
3.27, 96.71693, 0.00556739, NaN, NaN, NaN, 0.0335714, "- N/A -   "
3.33, 98.60408, 0.00566457, NaN, NaN, NaN, 0.03601294, "- N/A -   "
3.39, 100.3733, 0.00576176, NaN, NaN, NaN, 0.03601294, "- N/A -   "
3.45, 102.3784, 0.0058645, NaN, NaN, NaN, 0.0347922, "- N/A -   "
3.51, 104.148, 0.005956133, NaN, NaN, NaN, 0.0384545, "- N/A -   "
3.57, 105.917, 0.00605054, NaN, NaN, NaN, 0.04211683, "- N/A -   "
3.63, 107.686, 0.006142175, NaN, NaN, NaN, 0.04577916, "- N/A -   "
3.69, 110.045, 0.006256022, NaN, NaN, NaN, 0.0396753, "- N/A -   "
3.75, 112.286, 0.00636987, NaN, NaN, NaN, 0.0347922, "- N/A -   "
3.81, 114.2911, 0.006467055, NaN, NaN, NaN, 0.0347922, "- N/A -   "
3.87, 116.178, 0.006567018, NaN, NaN, NaN, 0.03601294, "- N/A -   "
3.93, 118.183, 0.00666976, NaN, NaN, NaN, 0.0347922, "- N/A -   "
3.99, 120.66, 0.00678083, NaN, NaN, NaN, 0.0286883, "- N/A -   "
4.05, 122.665, 0.006878014, NaN, NaN, NaN, 0.0299091, "- N/A -   "
4.11, 124.435, 0.00696687, NaN, NaN, NaN, 0.0347922, "- N/A -   "
4.17, 125.85, 0.00704462, NaN, NaN, NaN, 0.04577916, "- N/A -   "
4.23, 128.091, 0.00713903, NaN, NaN, NaN, 0.04699994, "- N/A -   "
4.29, 130.214, 0.00724455, NaN, NaN, NaN, 0.04577916, "- N/A -   "
4.35, 132.573, 0.007352839, NaN, NaN, NaN, 0.04211683, "- N/A -   "
4.41, 134.932, 0.007466686, NaN, NaN, NaN, 0.03601294, "- N/A -   "
4.47, 137.173, 0.007566649, NaN, NaN, NaN, 0.0347922, "- N/A -   "
4.53, 139.65, 0.0076805, NaN, NaN, NaN, 0.0286883, "- N/A -   "
4.59, 142.009, 0.007783236, NaN, NaN, NaN, 0.0274675, "- N/A -   "
4.65, 144.014, 0.007880422, NaN, NaN, NaN, 0.0286883, "- N/A -   "
4.71, 146.137, 0.007969278, NaN, NaN, NaN, 0.0335714, "- N/A -   "
4.77, 147.906, 0.00805813, NaN, NaN, NaN, 0.0384545, "- N/A -   "
4.83, 149.911, 0.008149767, NaN, NaN, NaN, 0.0433376, "- N/A -   "
4.89, 152.152, 0.008244176, NaN, NaN, NaN, 0.0445584, "- N/A -   "
4.95, 154.2753, 0.008341363, NaN, NaN, NaN, 0.04699994, "- N/A -   "
5.01, 156.87, 0.00844688, NaN, NaN, NaN, 0.0433376, "- N/A -   "
5.07, 159.229, 0.008557949, NaN, NaN, NaN, 0.0384545, "- N/A -   "
5.13, 161.942, 0.008677349, NaN, NaN, NaN, 0.0299091, "- N/A -   "
5.19, 164.301, 0.008777313, NaN, NaN, NaN, 0.0299091, "- N/A -   "
5.25, 166.424, 0.008874499, NaN, NaN, NaN, 0.03112983, "- N/A -   "
5.31, 168.665, 0.008974463, NaN, NaN, NaN, 0.0323506, "- N/A -   "
5.37, 170.788, 0.009071649, NaN, NaN, NaN, 0.0335714, "- N/A -   "
5.43, 173.1469, 0.009168834, NaN, NaN, NaN, 0.0335714, "- N/A -   "
5.49, 175.034, 0.009257691, NaN, NaN, NaN, 0.0384545, "- N/A -   "
5.55, 176.9212, 0.00934377, NaN, NaN, NaN, 0.0445584, "- N/A -   "
5.61, 179.162, 0.009440957, NaN, NaN, NaN, 0.04577916, "- N/A -   "
5.67, 181.521, 0.00954925, NaN, NaN, NaN, 0.04211683, "- N/A -   "
5.73, 184.116, 0.009663097, NaN, NaN, NaN, 0.03601294, "- N/A -   "
5.79, 186.593, 0.009774166, NaN, NaN, NaN, 0.03112983, "- N/A -   "
5.85, 188.598, 0.009874129, NaN, NaN, NaN, 0.03112983, "- N/A -   "
5.91, 190.485, 0.00996576, NaN, NaN, NaN, 0.0347922, "- N/A -   "
5.97, 192.608, 0.0100657, NaN, NaN, NaN, 0.03601294, "- N/A -   "
6.03, 194.849, 0.0101685, NaN, NaN, NaN, 0.0335714, "- N/A -   "
6.09, 196.972, 0.0102684, NaN, NaN, NaN, 0.0335714, "- N/A -   "
6.15, 198.977, 0.0103628, NaN, NaN, NaN, 0.0372337, "- N/A -   "
6.21, 200.865, 0.0104489, NaN, NaN, NaN, 0.04211683, "- N/A -   "
6.27, 202.9876, 0.0105544, NaN, NaN, NaN, 0.0396753, "- N/A -   "
6.33, 205.2286, 0.0106544, NaN, NaN, NaN, 0.0396753, "- N/A -   "
6.39, 207.4696, 0.01076269, NaN, NaN, NaN, 0.0372337, "- N/A -   "
6.45, 209.711, 0.0108654, NaN, NaN, NaN, 0.03601294, "- N/A -   "
6.51, 211.716, 0.0109598, NaN, NaN, NaN, 0.0372337, "- N/A -   "
6.57, 214.075, 0.0110626, NaN, NaN, NaN, 0.03601294, "- N/A -   "
6.63, 216.198, 0.0111709, NaN, NaN, NaN, 0.0335714, "- N/A -   "
6.69, 218.4387, 0.0112708, NaN, NaN, NaN, 0.0323506, "- N/A -   "
6.75, 220.562, 0.0113764, NaN, NaN, NaN, 0.03112983, "- N/A -   "
6.81, 222.685, 0.0114763, NaN, NaN, NaN, 0.0299091, "- N/A -   "
6.87, 224.454, 0.0115679, NaN, NaN, NaN, 0.0347922, "- N/A -   "
6.93, 226.1053, 0.01165125, NaN, NaN, NaN, 0.04211683, "- N/A -   "
6.99, 228.228, 0.01174566, NaN, NaN, NaN, 0.0433376, "- N/A -   "
7.05, 230.351, 0.0118428, NaN, NaN, NaN, 0.0445584, "- N/A -   "
7.11, 232.592, 0.0119456, NaN, NaN, NaN, 0.0433376, "- N/A -   "
7.17, 234.833, 0.0120594, NaN, NaN, NaN, 0.0372337, "- N/A -   "
7.23, 237.192, 0.0121705, NaN, NaN, NaN, 0.0335714, "- N/A -   "
7.29, 239.433, 0.0122732, NaN, NaN, NaN, 0.03112983, "- N/A -   "
7.35, 241.556, 0.01237876, NaN, NaN, NaN, 0.0299091, "- N/A -   "
7.41, 243.914, 0.0124815, NaN, NaN, NaN, 0.0274675, "- N/A -   "
7.47, 245.6813, 0.0125731, NaN, NaN, NaN, 0.03112983, "- N/A -   "
7.53, 247.567, 0.0126648, NaN, NaN, NaN, 0.0347922, "- N/A -   "
7.59, 249.216, 0.0127481, NaN, NaN, NaN, 0.0433376, "- N/A -   "
7.65, 251.101, 0.0128397, NaN, NaN, NaN, 0.04577916, "- N/A -   "
7.71, 253.34, 0.01294244, NaN, NaN, NaN, 0.0445584, "- N/A -   "
7.77, 255.697, 0.01305351, NaN, NaN, NaN, 0.0396753, "- N/A -   "
7.83, 258.053, 0.0131646, NaN, NaN, NaN, 0.0347922, "- N/A -   "
7.89, 260.174, 0.0132701, NaN, NaN, NaN, 0.0323506, "- N/A -   "
7.95, 262.4126, 0.0133728, NaN, NaN, NaN, 0.03112983, "- N/A -   "
7.99, 263.8265, 0.013445, NaN, NaN, NaN, 0.0286883, "- N/A -   "
8, 264.18, 0.0134645, NaN, NaN, NaN, 0.0286883, "- N/A -   "
8.01, 264.6513, 0.0134811, NaN, NaN, NaN, 0.0274675, "- N/A -   "
8.02, 265.0048, 0.01349779, NaN, NaN, NaN, 0.0274675, "- N/A -   "
8.03, 265.358, 0.0135172, NaN, NaN, NaN, 0.0274675, "- N/A -   "
8.04, 265.712, 0.0135339, NaN, NaN, NaN, 0.0262467, "- N/A -   "
8.05, 266.183, 0.0135533, NaN, NaN, NaN, 0.0250259, "- N/A -   "
8.06, 266.4187, 0.0135672, NaN, NaN, NaN, 0.0262467, "- N/A -   "
8.07, 266.89, 0.0135866, NaN, NaN, NaN, 0.0250259, "- N/A -   "
8.08, 267.243, 0.0136033, NaN, NaN, NaN, 0.0250259, "- N/A -   "
8.09, 267.597, 0.01362, NaN, NaN, NaN, 0.0250259, "- N/A -   "
8.1, 267.8326, 0.0136339, NaN, NaN, NaN, 0.0262467, "- N/A -   "
8.11, 268.304, 0.0136505, NaN, NaN, NaN, 0.0262467, "- N/A -   "
8.12, 268.422, 0.0136644, NaN, NaN, NaN, 0.0274675, "- N/A -   "
8.13, 268.7752, 0.0136783, NaN, NaN, NaN, 0.0286883, "- N/A -   "
8.14, 269.1287, 0.0136922, NaN, NaN, NaN, 0.0299091, "- N/A -   "
8.15, 269.247, 0.013706, NaN, NaN, NaN, 0.0323506, "- N/A -   "
8.16, 269.6, 0.0137199, NaN, NaN, NaN, 0.0335714, "- N/A -   "
8.17, 269.836, 0.0137366, NaN, NaN, NaN, 0.0347922, "- N/A -   "
8.18, 270.307, 0.0137505, NaN, NaN, NaN, 0.03601294, "- N/A -   "
8.19, 270.425, 0.0137644, NaN, NaN, NaN, 0.03601294, "- N/A -   "
8.2, 270.8961, 0.0137782, NaN, NaN, NaN, 0.0372337, "- N/A -   "
8.21, 271.132, 0.0137921, NaN, NaN, NaN, 0.0384545, "- N/A -   "
8.22, 271.367, 0.01380601, NaN, NaN, NaN, 0.0396753, "- N/A -   "
8.23, 271.603, 0.0138199, NaN, NaN, NaN, 0.04089605, "- N/A -   "
8.24, 271.839, 0.0138338, NaN, NaN, NaN, 0.04211683, "- N/A -   "
8.25, 272.192, 0.0138477, NaN, NaN, NaN, 0.0433376, "- N/A -   "
8.26, 272.546, 0.0138615, NaN, NaN, NaN, 0.0445584, "- N/A -   "
8.27, 272.899, 0.0138782, NaN, NaN, NaN, 0.04577916, "- N/A -   "
8.28, 273.1348, 0.0138921, NaN, NaN, NaN, 0.04577916, "- N/A -   "
8.29, 273.488, 0.0139087, NaN, NaN, NaN, 0.04577916, "- N/A -   "
8.3, 273.842, 0.0139254, NaN, NaN, NaN, 0.04577916, "- N/A -   "
8.31, 274.313, 0.0139421, NaN, NaN, NaN, 0.04699994, "- N/A -   "
8.32, 274.549, 0.013956, NaN, NaN, NaN, 0.04699994, "- N/A -   "
8.33, 274.784, 0.0139726, NaN, NaN, NaN, 0.0482207, "- N/A -   "
8.34, 275.138, 0.0139865, NaN, NaN, NaN, 0.0482207, "- N/A -   "
8.35, 275.4913, 0.0140032, NaN, NaN, NaN, 0.0482207, "- N/A -   "
8.36, 275.963, 0.01401982, NaN, NaN, NaN, 0.0482207, "- N/A -   "
8.37, 276.198, 0.0140365, NaN, NaN, NaN, 0.0494415, "- N/A -   "
8.38, 276.552, 0.0140559, NaN, NaN, NaN, 0.0482207, "- N/A -   "
8.39, 277.023, 0.0140726, NaN, NaN, NaN, 0.04699994, "- N/A -   "
8.4, 277.494, 0.014092, NaN, NaN, NaN, 0.04699994, "- N/A -   "
8.41, 277.966, 0.0141115, NaN, NaN, NaN, 0.04577916, "- N/A -   "
8.42, 278.319, 0.0141281, NaN, NaN, NaN, 0.0445584, "- N/A -   "
8.43, 278.6726, 0.0141503, NaN, NaN, NaN, 0.0433376, "- N/A -   "
8.44, 279.144, 0.014167, NaN, NaN, NaN, 0.04211683, "- N/A -   "
8.45, 279.615, 0.0141836, NaN, NaN, NaN, 0.04211683, "- N/A -   "
8.46, 279.851, 0.0142031, NaN, NaN, NaN, 0.04089605, "- N/A -   "
8.47, 280.204, 0.0142197, NaN, NaN, NaN, 0.04089605, "- N/A -   "
8.48, 280.558, 0.0142392, NaN, NaN, NaN, 0.04089605, "- N/A -   "
8.49, 281.0291, 0.0142558, NaN, NaN, NaN, 0.0396753, "- N/A -   "
8.5, 281.3826, 0.0142725, NaN, NaN, NaN, 0.0396753, "- N/A -   "
8.51, 281.736, 0.0142919, NaN, NaN, NaN, 0.0384545, "- N/A -   "
8.52, 282.09, 0.0143086, NaN, NaN, NaN, 0.0384545, "- N/A -   "
8.53, 282.443, 0.0143253, NaN, NaN, NaN, 0.0384545, "- N/A -   "
8.54, 282.914, 0.0143447, NaN, NaN, NaN, 0.0372337, "- N/A -   "
8.55, 283.386, 0.0143641, NaN, NaN, NaN, 0.0372337, "- N/A -   "
8.56, 283.6213, 0.0143808, NaN, NaN, NaN, 0.03601294, "- N/A -   "
8.57, 284.093, 0.0144002, NaN, NaN, NaN, 0.0347922, "- N/A -   "
8.58, 284.446, 0.0144197, NaN, NaN, NaN, 0.0335714, "- N/A -   "
8.59, 284.917, 0.01443911, NaN, NaN, NaN, 0.0323506, "- N/A -   "
8.6, 285.3887, 0.0144585, NaN, NaN, NaN, 0.03112983, "- N/A -   "
8.61, 285.7422, 0.014478, NaN, NaN, NaN, 0.0299091, "- N/A -   "
8.62, 286.213, 0.0144946, NaN, NaN, NaN, 0.0299091, "- N/A -   "
8.63, 286.449, 0.0145113, NaN, NaN, NaN, 0.0299091, "- N/A -   "
8.64, 286.8026, 0.0145307, NaN, NaN, NaN, 0.0286883, "- N/A -   "
8.65, 287.274, 0.0145474, NaN, NaN, NaN, 0.0286883, "- N/A -   "
8.66, 287.6274, 0.0145641, NaN, NaN, NaN, 0.0286883, "- N/A -   "
8.67, 287.981, 0.0145807, NaN, NaN, NaN, 0.0286883, "- N/A -   "
8.68, 288.334, 0.0145974, NaN, NaN, NaN, 0.0299091, "- N/A -   "
8.69, 288.688, 0.014614, NaN, NaN, NaN, 0.0299091, "- N/A -   "
8.7, 289.041, 0.0146307, NaN, NaN, NaN, 0.0299091, "- N/A -   "
8.71, 289.395, 0.0146446, NaN, NaN, NaN, 0.0299091, "- N/A -   "
8.72, 289.748, 0.01466125, NaN, NaN, NaN, 0.03112983, "- N/A -   "
8.73, 289.984, 0.0146751, NaN, NaN, NaN, 0.03112983, "- N/A -   "
8.74, 290.3374, 0.014689, NaN, NaN, NaN, 0.0323506, "- N/A -   "
8.75, 290.573, 0.0147029, NaN, NaN, NaN, 0.0335714, "- N/A -   "
8.76, 290.6909, 0.0147168, NaN, NaN, NaN, 0.0347922, "- N/A -   "
8.77, 291.162, 0.0147307, NaN, NaN, NaN, 0.03601294, "- N/A -   "
8.78, 291.516, 0.0147473, NaN, NaN, NaN, 0.03601294, "- N/A -   "
8.79, 291.8691, 0.014764, NaN, NaN, NaN, 0.0372337, "- N/A -   "
8.8, 292.2226, 0.0147779, NaN, NaN, NaN, 0.0372337, "- N/A -   "
8.81, 292.576, 0.0147945, NaN, NaN, NaN, 0.0372337, "- N/A -   "
8.82, 292.93, 0.0148112, NaN, NaN, NaN, 0.0372337, "- N/A -   "
8.83, 293.283, 0.0148279, NaN, NaN, NaN, 0.0372337, "- N/A -   "
8.84, 293.637, 0.0148473, NaN, NaN, NaN, 0.0372337, "- N/A -   "
8.85, 293.872, 0.0148612, NaN, NaN, NaN, 0.0372337, "- N/A -   "
8.86, 294.343, 0.0148778, NaN, NaN, NaN, 0.0372337, "- N/A -   "
8.87, 294.8148, 0.0148945, NaN, NaN, NaN, 0.0384545, "- N/A -   "
8.88, 294.9326, 0.0149112, NaN, NaN, NaN, 0.0384545, "- N/A -   "
8.89, 295.404, 0.0149223, NaN, NaN, NaN, 0.0396753, "- N/A -   "
8.9, 295.6396, 0.0149389, NaN, NaN, NaN, 0.0396753, "- N/A -   "
8.91, 295.993, 0.0149556, NaN, NaN, NaN, 0.0396753, "- N/A -   "
8.92, 296.347, 0.0149695, NaN, NaN, NaN, 0.04089605, "- N/A -   "
[...]
13.15, 458.2396, 0.0220196, NaN, NaN, NaN, 0.04211683, "- N/A -   "
13.36, 467.194, 0.0223862, NaN, NaN, NaN, 0.0335714, "- N/A -   "
13.57, 475.56, 0.0227333, NaN, NaN, NaN, 0.0347922, "- N/A -   "
13.78, 483.926, 0.02307203, NaN, NaN, NaN, 0.0396753, "- N/A -   "
13.99, 492.998, 0.0234386, NaN, NaN, NaN, 0.0335714, "- N/A -   "
14.2, 501.7174, 0.0237968, NaN, NaN, NaN, 0.0286883, "- N/A -   "
14.41, 509.612, 0.02411609, NaN, NaN, NaN, 0.04211683, "- N/A -   "
14.62, 518.4678, 0.0244715, NaN, NaN, NaN, 0.0396753, "- N/A -   "
14.83, 527.93, 0.02484915, NaN, NaN, NaN, 0.0274675, "- N/A -   "
15.04, 535.7368, 0.0251657, NaN, NaN, NaN, 0.04211683, "- N/A -   "
15.25, 544.608, 0.0255156, NaN, NaN, NaN, 0.04211683, "- N/A -   "
15.46, 554.1886, 0.0258932, NaN, NaN, NaN, 0.0299091, "- N/A -   "
15.67, 562.9414, 0.026232, NaN, NaN, NaN, 0.03601294, "- N/A -   "
15.88, 571.221, 0.02655963, NaN, NaN, NaN, 0.0445584, "- N/A -   "
16.09, 581.1567, 0.02694, NaN, NaN, NaN, 0.03112983, "- N/A -   "
16.3, 590.0277, 0.0272899, NaN, NaN, NaN, 0.0323506, "- N/A -   "
16.51, 598.544, 0.0276204, NaN, NaN, NaN, 0.0396753, "- N/A -   "
16.72, 607.533, 0.0279758, NaN, NaN, NaN, 0.0372337, "- N/A -   "
16.93, 616.9958, 0.028334, NaN, NaN, NaN, 0.0335714, "- N/A -   "
17.14, 625.63, 0.0286727, NaN, NaN, NaN, 0.0384545, "- N/A -   "
17.35, 634.738, 0.0290198, NaN, NaN, NaN, 0.04089605, "- N/A -   "
17.56, 644.2003, 0.0293864, NaN, NaN, NaN, 0.0335714, "- N/A -   "
17.77, 653.0714, 0.0297335, NaN, NaN, NaN, 0.0347922, "- N/A -   "
17.98, 662.0607, 0.030075, NaN, NaN, NaN, 0.0396753, "- N/A -   "
18.19, 671.523, 0.0304388, NaN, NaN, NaN, 0.0323506, "- N/A -   "
18.4, 680.5126, 0.0307831, NaN, NaN, NaN, 0.0347922, "- N/A -   "
18.61, 689.029, 0.0311107, NaN, NaN, NaN, 0.0445584, "- N/A -   "
18.82, 699.2009, 0.03149947, NaN, NaN, NaN, 0.0274675, "- N/A -   "
19.03, 708.1903, 0.03183546, NaN, NaN, NaN, 0.0335714, "- N/A -   "
19.24, 716.4699, 0.0321576, NaN, NaN, NaN, 0.04699994, "- N/A -   "
19.45, 726.6421, 0.0325324, NaN, NaN, NaN, 0.0347922, "- N/A -   "
19.66, 735.868, 0.03288785, NaN, NaN, NaN, 0.0323506, "- N/A -   "
19.87, 744.5025, 0.0332155, NaN, NaN, NaN, 0.04211683, "- N/A -   "
20.08, 754.32, 0.03357926, NaN, NaN, NaN, 0.03601294, "- N/A -   "
20.29, 763.7823, 0.0339402, NaN, NaN, NaN, 0.03112983, "- N/A -   "
20.5, 772.89, 0.0342846, NaN, NaN, NaN, 0.0347922, "- N/A -   "
20.71, 781.5244, 0.0346122, NaN, NaN, NaN, 0.0445584, "- N/A -   "
20.92, 791.5783, 0.03498152, NaN, NaN, NaN, 0.03601294, "- N/A -   "
21.13, 801.0407, 0.03533972, NaN, NaN, NaN, 0.0323506, "- N/A -   "
21.34, 809.439, 0.03565627, NaN, NaN, NaN, 0.04577916, "- N/A -   "
21.55, 819.6108, 0.03603391, NaN, NaN, NaN, 0.0335714, "- N/A -   "
21.76, 828.955, 0.0363866, NaN, NaN, NaN, 0.0335714, "- N/A -   "
21.97, 837.4712, 0.03670866, NaN, NaN, NaN, 0.04577916, "- N/A -   "
22.18, 847.9982, 0.0370946, NaN, NaN, NaN, 0.0299091, "- N/A -   "
22.39, 857.1059, 0.03743339, NaN, NaN, NaN, 0.03601294, "- N/A -   "
22.6, 865.859, 0.037761, NaN, NaN, NaN, 0.0445584, "- N/A -   "
22.81, 875.9125, 0.0381387, NaN, NaN, NaN, 0.0323506, "- N/A -   "
23.02, 885.2567, 0.0384858, NaN, NaN, NaN, 0.0335714, "- N/A -   "
23.23, 894.246, 0.038819, NaN, NaN, NaN, 0.04089605, "- N/A -   "
23.44, 903.8268, 0.0391744, NaN, NaN, NaN, 0.0384545, "- N/A -   "
23.65, 913.408, 0.0395326, NaN, NaN, NaN, 0.0347922, "- N/A -   "
23.86, 922.87, 0.03988249, NaN, NaN, NaN, 0.03601294, "- N/A -   "
24.07, 931.741, 0.0402157, NaN, NaN, NaN, 0.04211683, "- N/A -   "
24.28, 941.9132, 0.04059056, NaN, NaN, NaN, 0.0323506, "- N/A -   "
24.49, 951.3757, 0.04094598, NaN, NaN, NaN, 0.0299091, "- N/A -   "
24.7, 959.655, 0.0412514, NaN, NaN, NaN, 0.0482207, "- N/A -   "
24.91, 970.064, 0.04164017, NaN, NaN, NaN, 0.0323506, "- N/A -   "
25.12, 979.645, 0.04199837, NaN, NaN, NaN, 0.0274675, "- N/A -   "
25.33, 987.8062, 0.0423066, NaN, NaN, NaN, 0.04577916, "- N/A -   "
25.54, 997.86, 0.0426759, NaN, NaN, NaN, 0.0372337, "- N/A -   "
25.75, 1007.68, 0.0430452, NaN, NaN, NaN, 0.0299091, "- N/A -   "
25.96, 1016.82, 0.0433784, NaN, NaN, NaN, 0.03601294, "- N/A -   "
26.17, 1026.24, 0.04371996, NaN, NaN, NaN, 0.0396753, "- N/A -   "
26.38, 1036.02, 0.04407816, NaN, NaN, NaN, 0.0372337, "- N/A -   "
26.59, 1045.56, 0.0444336, NaN, NaN, NaN, 0.0347922, "- N/A -   "
26.8, 1054.86, 0.04477235, NaN, NaN, NaN, 0.0396753, "- N/A -   "
27.01, 1064.64, 0.04513055, NaN, NaN, NaN, 0.03601294, "- N/A -   "
27.22, 1074.534, 0.04549708, NaN, NaN, NaN, 0.0286883, "- N/A -   "
27.43, 1083, 0.0458081, NaN, NaN, NaN, 0.04699994, "- N/A -   "
27.64, 1093.38, 0.0461802, NaN, NaN, NaN, 0.03601294, "- N/A -   "
27.85, 1103.393, 0.04654669, NaN, NaN, NaN, 0.0299091, "- N/A -   "
28.06, 1111.74, 0.0468605, NaN, NaN, NaN, 0.0445584, "- N/A -   "
28.27, 1121.88, 0.047227, NaN, NaN, NaN, 0.0372337, "- N/A -   "
28.48, 1132.13, 0.04759908, NaN, NaN, NaN, 0.0274675, "- N/A -   "
28.69, 1140.6, 0.04791563, NaN, NaN, NaN, 0.04211683, "- N/A -   "
28.9, 1150.02, 0.0482627, NaN, NaN, NaN, 0.0445584, "- N/A -   "
29.11, 1160.75, 0.0486459, NaN, NaN, NaN, 0.0286883, "- N/A -   "
29.32, 1170.29, 0.04898746, NaN, NaN, NaN, 0.0335714, "- N/A -   "
29.53, 1179, 0.0493123, NaN, NaN, NaN, 0.0433376, "- N/A -   "
29.74, 1189.49, 0.04969, NaN, NaN, NaN, 0.03112983, "- N/A -   "
29.95, 1198.914, 0.0500343, NaN, NaN, NaN, 0.0335714, "- N/A -   "
30.16, 1208.22, 0.05037028, NaN, NaN, NaN, 0.0396753, "- N/A -   "
30.37, 1218.11, 0.05072848, NaN, NaN, NaN, 0.03601294, "- N/A -   "
30.58, 1227.65, 0.05108113, NaN, NaN, NaN, 0.0347922, "- N/A -   "
30.79, 1236.96, 0.05142267, NaN, NaN, NaN, 0.0396753, "- N/A -   "
31, 1246.85, 0.0517781, NaN, NaN, NaN, 0.0372337, "- N/A -   "
31.21, 1256.75, 0.05213907, NaN, NaN, NaN, 0.0323506, "- N/A -   "
31.42, 1265.695, 0.05247228, NaN, NaN, NaN, 0.0396753, "- N/A -   "
31.63, 1275.12, 0.0528166, NaN, NaN, NaN, 0.0433376, "- N/A -   "
31.84, 1285.37, 0.0531942, NaN, NaN, NaN, 0.0299091, "- N/A -   "
32.05, 1294.43, 0.0535274, NaN, NaN, NaN, 0.0372337, "- N/A -   "
32.26, 1303.38, 0.0538607, NaN, NaN, NaN, 0.0445584, "- N/A -   "
32.47, 1314.11, 0.0542522, NaN, NaN, NaN, 0.0274675, "- N/A -   "
32.68, 1322.94, 0.0545771, NaN, NaN, NaN, 0.0372337, "- N/A -   "
32.89, 1331.88, 0.0549047, NaN, NaN, NaN, 0.04699994, "- N/A -   "
33.1, 1342.49, 0.0552879, NaN, NaN, NaN, 0.0335714, "- N/A -   "
33.31, 1352.15, 0.0556378, NaN, NaN, NaN, 0.0323506, "- N/A -   "
33.52, 1361.1, 0.0559654, NaN, NaN, NaN, 0.04211683, "- N/A -   "
33.73, 1371.35, 0.05633474, NaN, NaN, NaN, 0.0335714, "- N/A -   "
33.94, 1380.89, 0.05668739, NaN, NaN, NaN, 0.0323506, "- N/A -   "
34.15, 1390.194, 0.0570317, NaN, NaN, NaN, 0.0347922, "- N/A -   "
34.36, 1398.9, 0.05735381, NaN, NaN, NaN, 0.04699994, "- N/A -   "
34.57, 1409.39, 0.057737, NaN, NaN, NaN, 0.0323506, "- N/A -   "
34.78, 1419.053, 0.0580869, NaN, NaN, NaN, 0.0335714, "- N/A -   "
34.99, 1427.52, 0.0584006, NaN, NaN, NaN, 0.0482207, "- N/A -   "
35.2, 1438.13, 0.0587866, NaN, NaN, NaN, 0.0323506, "- N/A -   "
35.41, 1447.91, 0.05914204, NaN, NaN, NaN, 0.03112983, "- N/A -   "
35.62, 1456.62, 0.0594614, NaN, NaN, NaN, 0.0445584, "- N/A -   "
35.83, 1466.99, 0.0598418, NaN, NaN, NaN, 0.0323506, "- N/A -   "
36.04, 1476.29, 0.0601861, NaN, NaN, NaN, 0.0347922, "- N/A -   "
36.25, 1485.36, 0.06051653, NaN, NaN, NaN, 0.0433376, "- N/A -   "
36.46, 1495.37, 0.06088584, NaN, NaN, NaN, 0.0335714, "- N/A -   "
36.67, 1504.91, 0.0612329, NaN, NaN, NaN, 0.0347922, "- N/A -   "
36.88, 1513.74, 0.06156892, NaN, NaN, NaN, 0.04211683, "- N/A -   "
37.09, 1523.52, 0.0619243, NaN, NaN, NaN, 0.0384545, "- N/A -   "
37.3, 1533.18, 0.06228532, NaN, NaN, NaN, 0.0347922, "- N/A -   "
37.51, 1542.598, 0.06263797, NaN, NaN, NaN, 0.0323506, "- N/A -   "
37.72, 1551.18, 0.06296007, NaN, NaN, NaN, 0.0445584, "- N/A -   "
37.93, 1561.32, 0.0633349, NaN, NaN, NaN, 0.0335714, "- N/A -   "
38.14, 1571.1, 0.06369869, NaN, NaN, NaN, 0.0286883, "- N/A -   "
38.35, 1579.21, 0.06400413, NaN, NaN, NaN, 0.04699994, "- N/A -   "
38.56, 1589.34, 0.06438176, NaN, NaN, NaN, 0.0347922, "- N/A -   "
38.77, 1599, 0.0647427, NaN, NaN, NaN, 0.03112983, "- N/A -   "
38.98, 1607.35, 0.0650593, NaN, NaN, NaN, 0.0445584, "- N/A -   "
39.19, 1617.25, 0.06542583, NaN, NaN, NaN, 0.0384545, "- N/A -   "
39.4, 1627.15, 0.06578958, NaN, NaN, NaN, 0.0323506, "- N/A -   "
39.61, 1635.97, 0.0661256, NaN, NaN, NaN, 0.0384545, "- N/A -   "
39.82, 1645.51, 0.06647544, NaN, NaN, NaN, 0.0384545, "- N/A -   "
40.03, 1655.05, 0.06683642, NaN, NaN, NaN, 0.0347922, "- N/A -   "
40.169, 1661.02, 0.0670669, NaN, NaN, NaN, 0.0335714, "- N/A -   "