File: 2_Tensile_Data/Hamel_ForceTest_Bolt6_Test8.csv
Time, Load (lb), Position (in), AxialStrain (in), TransverseStrain (in), Auxiliary (), Control Out (V), Stress (psi)
0.0, 13.6819, 0.0, NaN, NaN, NaN, -0.007935055, "- N/A -   "
0.01, 13.6819, -2.776752E-6, NaN, NaN, NaN, 6.103888E-4, "- N/A -   "
0.02, 13.6819, 0.0, NaN, NaN, NaN, 0.006714277, "- N/A -   "
0.03, 13.6819, 0.0, NaN, NaN, NaN, 0.0238052, "- N/A -   "
0.04, 13.7999, 5.553504E-6, NaN, NaN, NaN, 0.04089605, "- N/A -   "
0.05, 13.9178, 1.66605e-05, NaN, NaN, NaN, 0.0555454, "- N/A -   "
0.06, 14.1537, 3.054427E-5, NaN, NaN, NaN, 0.0689739, "- N/A -   "
0.07, 14.7434, 5.27583e-05, NaN, NaN, NaN, 0.0799609, "- N/A -   "
0.08, 15.0973, 7.774905E-5, NaN, NaN, NaN, 0.08850638, "- N/A -   "
0.09, 15.687, 0.000105517, NaN, NaN, NaN, 0.095831, "- N/A -   "
0.1, 16.3947, 0.000136061, NaN, NaN, NaN, 0.095831, "- N/A -   "
0.11, 16.86649, 0.000163828, NaN, NaN, NaN, 0.0897272, "- N/A -   "
0.12, 17.4562, 0.000191596, NaN, NaN, NaN, 0.084844, "- N/A -   "
0.13, 17.928, 2.193634E-4, NaN, NaN, NaN, 0.08118171, "- N/A -   "
0.14, 18.3998, 2.415774E-4, NaN, NaN, NaN, 0.07751938, "- N/A -   "
0.15, 18.7536, 0.000266568, NaN, NaN, NaN, 0.07385705, "- N/A -   "
0.16, 19.1075, 0.000288782, NaN, NaN, NaN, 0.07141549, "- N/A -   "
0.17, 19.57928, 3.109962E-4, NaN, NaN, NaN, 0.0701947, "- N/A -   "
0.18, 19.9331, 0.000330433, NaN, NaN, NaN, 0.0689739, "- N/A -   "
0.19, 20.287, 0.000349871, NaN, NaN, NaN, 0.06653238, "- N/A -   "
0.2, 20.52286, 3.69308E-4, NaN, NaN, NaN, 0.0653116, "- N/A -   "
0.21, 20.99465, 0.000388745, NaN, NaN, NaN, 0.0640908, "- N/A -   "
0.22, 21.3485, 4.081825E-4, NaN, NaN, NaN, 0.06287005, "- N/A -   "
0.23, 21.7023, 4.276198E-4, NaN, NaN, NaN, 0.06164927, "- N/A -   "
0.24, 21.93823, 4.442803E-4, NaN, NaN, NaN, 0.06164927, "- N/A -   "
0.25, 22.29207, 0.000463718, NaN, NaN, NaN, 0.06164927, "- N/A -   "
0.26, 22.528, 4.831548E-4, NaN, NaN, NaN, 0.0592077, "- N/A -   "
0.27, 22.9998, 0.000502592, NaN, NaN, NaN, 0.0592077, "- N/A -   "
0.28, 23.3536, 0.000522029, NaN, NaN, NaN, 0.0579869, "- N/A -   "
0.29, 23.7074, 5.414666E-4, NaN, NaN, NaN, 0.05676616, "- N/A -   "
0.3, 24.0613, 0.000560904, NaN, NaN, NaN, 0.0543246, "- N/A -   "
0.31, 24.29718, 0.000580341, NaN, NaN, NaN, 0.0531038, "- N/A -   "
0.32, 24.769, 5.997784E-4, NaN, NaN, NaN, 0.05188305, "- N/A -   "
0.33, 25.0049, 6.219924E-4, NaN, NaN, NaN, 0.05066227, "- N/A -   "
0.34, 25.4767, 6.414297E-4, NaN, NaN, NaN, 0.0494415, "- N/A -   "
0.35, 25.9484, 6.608669E-4, NaN, NaN, NaN, 0.0482207, "- N/A -   "
0.36, 26.0664, 6.803042E-4, NaN, NaN, NaN, 0.04699994, "- N/A -   "
0.37, 26.6561, 6.969647E-4, NaN, NaN, NaN, 0.04577916, "- N/A -   "
0.38, 26.892, 0.000716402, NaN, NaN, NaN, 0.0445584, "- N/A -   "
0.39, 27.1279, 0.000735839, NaN, NaN, NaN, 0.0433376, "- N/A -   "
0.4, 27.5997, 7.552765E-4, NaN, NaN, NaN, 0.04211683, "- N/A -   "
0.41, 27.95355, 7.71937E-4, NaN, NaN, NaN, 0.04211683, "- N/A -   "
0.42, 28.1894, 0.000791374, NaN, NaN, NaN, 0.04089605, "- N/A -   "
0.43, 28.54329, 8.108115E-4, NaN, NaN, NaN, 0.0396753, "- N/A -   "
0.44, 28.89713, 8.302488E-4, NaN, NaN, NaN, 0.0396753, "- N/A -   "
0.45, 29.133, 8.469093E-4, NaN, NaN, NaN, 0.0384545, "- N/A -   "
0.46, 29.6048, 8.663466E-4, NaN, NaN, NaN, 0.0384545, "- N/A -   "
0.51, 31.1381, 9.524259E-4, NaN, NaN, NaN, 0.03601294, "- N/A -   "
0.56, 33.02529, 0.00104684, NaN, NaN, NaN, 0.0323506, "- N/A -   "
0.61, 34.55861, 0.00113291, NaN, NaN, NaN, 0.0299091, "- N/A -   "
0.66, 35.97398, 0.00121066, NaN, NaN, NaN, 0.0335714, "- N/A -   "
0.71, 37.3893, 0.00128286, NaN, NaN, NaN, 0.0372337, "- N/A -   "
0.76, 38.8047, 0.00136339, NaN, NaN, NaN, 0.0384545, "- N/A -   "
0.81, 40.22009, 0.00143836, NaN, NaN, NaN, 0.04211683, "- N/A -   "
0.86, 41.8714, 0.00151888, NaN, NaN, NaN, 0.0433376, "- N/A -   "
0.91, 43.40467, 0.00160219, NaN, NaN, NaN, 0.0433376, "- N/A -   "
0.96, 45.05593, 0.00168549, NaN, NaN, NaN, 0.0433376, "- N/A -   "
1.01, 46.9431, 0.00177434, NaN, NaN, NaN, 0.04089605, "- N/A -   "
1.06, 48.7123, 0.00187153, NaN, NaN, NaN, 0.03601294, "- N/A -   "
1.11, 50.7174, 0.00197149, NaN, NaN, NaN, 0.0286883, "- N/A -   "
1.16, 52.48662, 0.002057573, NaN, NaN, NaN, 0.0274675, "- N/A -   "
1.21, 54.13789, 0.00213532, NaN, NaN, NaN, 0.0286883, "- N/A -   "
1.26, 55.7892, 0.00221585, NaN, NaN, NaN, 0.0299091, "- N/A -   "
1.31, 57.44042, 0.00229637, NaN, NaN, NaN, 0.0323506, "- N/A -   "
1.36, 58.8558, 0.00236857, NaN, NaN, NaN, 0.0372337, "- N/A -   "
1.41, 60.5071, 0.00244354, NaN, NaN, NaN, 0.0396753, "- N/A -   "
1.46, 62.3942, 0.00252962, NaN, NaN, NaN, 0.0384545, "- N/A -   "
1.51, 63.80958, 0.00260459, NaN, NaN, NaN, 0.04211683, "- N/A -   "
1.56, 65.3429, 0.00268234, NaN, NaN, NaN, 0.0445584, "- N/A -   "
1.61, 67.1121, 0.00276287, NaN, NaN, NaN, 0.04577916, "- N/A -   "
1.66, 69.11722, 0.002854501, NaN, NaN, NaN, 0.04211683, "- N/A -   "
1.71, 71.12233, 0.00294891, NaN, NaN, NaN, 0.0384545, "- N/A -   "
1.76, 72.89154, 0.00303777, NaN, NaN, NaN, 0.03601294, "- N/A -   "
1.81, 74.8966, 0.00312662, NaN, NaN, NaN, 0.0323506, "- N/A -   "
1.86, 76.6659, 0.00320715, NaN, NaN, NaN, 0.0335714, "- N/A -   "
1.91, 78.31712, 0.00328767, NaN, NaN, NaN, 0.0347922, "- N/A -   "
1.96, 80.0863, 0.00337098, NaN, NaN, NaN, 0.0347922, "- N/A -   "
2.01, 81.97349, 0.00345983, NaN, NaN, NaN, 0.0323506, "- N/A -   "
2.06, 83.74271, 0.00354036, NaN, NaN, NaN, 0.0335714, "- N/A -   "
2.11, 85.39397, 0.00361811, NaN, NaN, NaN, 0.0372337, "- N/A -   "
2.16, 86.80934, 0.0036903, NaN, NaN, NaN, 0.04089605, "- N/A -   "
2.21, 88.6965, 0.003770829, NaN, NaN, NaN, 0.04211683, "- N/A -   "
2.26, 90.70161, 0.003859685, NaN, NaN, NaN, 0.0396753, "- N/A -   "
2.31, 92.47082, 0.003940211, NaN, NaN, NaN, 0.04211683, "- N/A -   "
2.36, 94.47592, 0.00403184, NaN, NaN, NaN, 0.0372337, "- N/A -   "
2.41, 96.36309, 0.004123477, NaN, NaN, NaN, 0.0335714, "- N/A -   "
2.46, 98.2502, 0.004206779, NaN, NaN, NaN, 0.0335714, "- N/A -   "
2.51, 100.137, 0.00429008, NaN, NaN, NaN, 0.0335714, "- N/A -   "
2.56, 101.907, 0.004376161, NaN, NaN, NaN, 0.0323506, "- N/A -   "
2.61, 103.912, 0.00445946, NaN, NaN, NaN, 0.0323506, "- N/A -   "
2.66, 105.563, 0.004542766, NaN, NaN, NaN, 0.0323506, "- N/A -   "
2.71, 107.686, 0.004631622, NaN, NaN, NaN, 0.03112983, "- N/A -   "
2.76, 109.219, 0.004709371, NaN, NaN, NaN, 0.0323506, "- N/A -   "
2.81, 110.989, 0.0047899, NaN, NaN, NaN, 0.0335714, "- N/A -   "
2.86, 112.522, 0.004862093, NaN, NaN, NaN, 0.0384545, "- N/A -   "
2.91, 114.055, 0.00493429, NaN, NaN, NaN, 0.0433376, "- N/A -   "
2.96, 115.824, 0.00501481, NaN, NaN, NaN, 0.0445584, "- N/A -   "
3.01, 117.594, 0.00509534, NaN, NaN, NaN, 0.04577916, "- N/A -   "
3.06, 119.481, 0.00517864, NaN, NaN, NaN, 0.04699994, "- N/A -   "
3.11, 121.486, 0.00527028, NaN, NaN, NaN, 0.04211683, "- N/A -   "
3.16, 123.845, 0.005370238, NaN, NaN, NaN, 0.0347922, "- N/A -   "
3.21, 125.614, 0.00545632, NaN, NaN, NaN, 0.0335714, "- N/A -   "
3.26, 127.501, 0.005542397, NaN, NaN, NaN, 0.0323506, "- N/A -   "
3.31, 129.27, 0.005622922, NaN, NaN, NaN, 0.0335714, "- N/A -   "
3.36, 131.393, 0.005717332, NaN, NaN, NaN, 0.0299091, "- N/A -   "
3.41, 133.163, 0.00580341, NaN, NaN, NaN, 0.0286883, "- N/A -   "
3.46, 134.696, 0.00587838, NaN, NaN, NaN, 0.03112983, "- N/A -   "
3.51, 136.229, 0.00595336, NaN, NaN, NaN, 0.03601294, "- N/A -   "
3.56, 137.8806, 0.006025552, NaN, NaN, NaN, 0.0396753, "- N/A -   "
3.61, 139.296, 0.00609775, NaN, NaN, NaN, 0.0445584, "- N/A -   "
3.66, 140.947, 0.006175496, NaN, NaN, NaN, 0.0482207, "- N/A -   "
3.71, 142.8344, 0.00626435, NaN, NaN, NaN, 0.04577916, "- N/A -   "
3.76, 145.193, 0.00636432, NaN, NaN, NaN, 0.0384545, "- N/A -   "
3.81, 147.198, 0.00645872, NaN, NaN, NaN, 0.0335714, "- N/A -   "
3.86, 148.8497, 0.006542028, NaN, NaN, NaN, 0.0335714, "- N/A -   "
3.91, 150.619, 0.006630884, NaN, NaN, NaN, 0.0323506, "- N/A -   "
3.96, 152.624, 0.00671974, NaN, NaN, NaN, 0.0286883, "- N/A -   "
4.01, 154.2753, 0.00680582, NaN, NaN, NaN, 0.0274675, "- N/A -   "
4.06, 155.927, 0.00688634, NaN, NaN, NaN, 0.0286883, "- N/A -   "
4.11, 157.342, 0.006961317, NaN, NaN, NaN, 0.0323506, "- N/A -   "
4.16, 158.7573, 0.007030736, NaN, NaN, NaN, 0.0384545, "- N/A -   "
4.21, 160.055, 0.00710015, NaN, NaN, NaN, 0.0445584, "- N/A -   "
4.26, 161.824, 0.007183457, NaN, NaN, NaN, 0.0445584, "- N/A -   "
4.31, 163.593, 0.00726398, NaN, NaN, NaN, 0.04577916, "- N/A -   "
4.36, 165.2444, 0.007347285, NaN, NaN, NaN, 0.04577916, "- N/A -   "
4.41, 167.014, 0.007436141, NaN, NaN, NaN, 0.0445584, "- N/A -   "
4.46, 168.665, 0.00752222, NaN, NaN, NaN, 0.04211683, "- N/A -   "
4.51, 170.552, 0.007619407, NaN, NaN, NaN, 0.0372337, "- N/A -   "
4.56, 172.4392, 0.00771382, NaN, NaN, NaN, 0.03112983, "- N/A -   "
4.61, 174.09, 0.0077999, NaN, NaN, NaN, 0.0299091, "- N/A -   "
4.66, 175.506, 0.007880421, NaN, NaN, NaN, 0.03112983, "- N/A -   "
4.71, 177.039, 0.007958171, NaN, NaN, NaN, 0.0335714, "- N/A -   "
4.76, 178.572, 0.008038697, NaN, NaN, NaN, 0.0347922, "- N/A -   "
4.81, 180.106, 0.00811645, NaN, NaN, NaN, 0.0372337, "- N/A -   "
4.86, 181.639, 0.008199749, NaN, NaN, NaN, 0.0372337, "- N/A -   "
4.91, 183.172, 0.008277497, NaN, NaN, NaN, 0.0396753, "- N/A -   "
4.96, 184.5878, 0.008358023, NaN, NaN, NaN, 0.04089605, "- N/A -   "
5.01, 186.003, 0.008433, NaN, NaN, NaN, 0.0445584, "- N/A -   "
5.06, 187.654, 0.008519075, NaN, NaN, NaN, 0.0433376, "- N/A -   "
5.11, 189.5416, 0.008616261, NaN, NaN, NaN, 0.0372337, "- N/A -   "
5.16, 191.311, 0.008710671, NaN, NaN, NaN, 0.0323506, "- N/A -   "
5.21, 193.08, 0.008802303, NaN, NaN, NaN, 0.0286883, "- N/A -   "
5.26, 194.495, 0.008880052, NaN, NaN, NaN, 0.03112983, "- N/A -   "
5.31, 195.911, 0.008957801, NaN, NaN, NaN, 0.0335714, "- N/A -   "
5.36, 197.562, 0.009041104, NaN, NaN, NaN, 0.0347922, "- N/A -   "
5.41, 199.095, 0.009124407, NaN, NaN, NaN, 0.0335714, "- N/A -   "
5.46, 200.629, 0.009210486, NaN, NaN, NaN, 0.0335714, "- N/A -   "
5.51, 202.28, 0.009288236, NaN, NaN, NaN, 0.0347922, "- N/A -   "
5.56, 203.459, 0.009363208, NaN, NaN, NaN, 0.0384545, "- N/A -   "
5.61, 204.875, 0.009438179, NaN, NaN, NaN, 0.04211683, "- N/A -   "
5.66, 206.408, 0.009524259, NaN, NaN, NaN, 0.04211683, "- N/A -   "
5.71, 208.059, 0.009607562, NaN, NaN, NaN, 0.04089605, "- N/A -   "
5.76, 209.593, 0.009693641, NaN, NaN, NaN, 0.04089605, "- N/A -   "
5.81, 211.244, 0.009779721, NaN, NaN, NaN, 0.0384545, "- N/A -   "
5.86, 212.777, 0.009863023, NaN, NaN, NaN, 0.0384545, "- N/A -   "
5.91, 214.1926, 0.009946326, NaN, NaN, NaN, 0.0384545, "- N/A -   "
5.96, 215.962, 0.0100352, NaN, NaN, NaN, 0.03601294, "- N/A -   "
6.01, 217.613, 0.0101268, NaN, NaN, NaN, 0.0323506, "- N/A -   "
6.06, 219.028, 0.0102101, NaN, NaN, NaN, 0.0335714, "- N/A -   "
6.11, 220.562, 0.0102962, NaN, NaN, NaN, 0.0323506, "- N/A -   "
6.16, 222.095, 0.0103739, NaN, NaN, NaN, 0.0335714, "- N/A -   "
6.21, 223.6284, 0.01046, NaN, NaN, NaN, 0.0335714, "- N/A -   "
6.26, 225.044, 0.010535, NaN, NaN, NaN, 0.03601294, "- N/A -   "
6.31, 226.459, 0.0106155, NaN, NaN, NaN, 0.0384545, "- N/A -   "
6.36, 228.11, 0.010696, NaN, NaN, NaN, 0.0384545, "- N/A -   "
6.41, 229.408, 0.0107682, NaN, NaN, NaN, 0.0433376, "- N/A -   "
6.46, 230.941, 0.0108515, NaN, NaN, NaN, 0.0433376, "- N/A -   "
6.51, 232.71, 0.0109432, NaN, NaN, NaN, 0.0396753, "- N/A -   "
6.56, 234.598, 0.0110431, NaN, NaN, NaN, 0.0323506, "- N/A -   "
6.61, 236.367, 0.0111292, NaN, NaN, NaN, 0.0323506, "- N/A -   "
6.66, 237.664, 0.0112125, NaN, NaN, NaN, 0.03112983, "- N/A -   "
6.71, 239.197, 0.0112931, NaN, NaN, NaN, 0.0323506, "- N/A -   "
6.76, 240.849, 0.0113819, NaN, NaN, NaN, 0.0299091, "- N/A -   "
6.8, 242.146, 0.0114513, NaN, NaN, NaN, 0.0286883, "- N/A -   "
6.81, 242.5, 0.011468, NaN, NaN, NaN, 0.0286883, "- N/A -   "
6.82, 242.853, 0.0114846, NaN, NaN, NaN, 0.0286883, "- N/A -   "
6.83, 243.089, 0.0115013, NaN, NaN, NaN, 0.0286883, "- N/A -   "
6.84, 243.443, 0.011518, NaN, NaN, NaN, 0.0286883, "- N/A -   "
6.85, 243.678, 0.0115346, NaN, NaN, NaN, 0.0286883, "- N/A -   "
6.86, 244.032, 0.0115485, NaN, NaN, NaN, 0.0299091, "- N/A -   "
6.87, 244.2674, 0.0115624, NaN, NaN, NaN, 0.03112983, "- N/A -   "
6.88, 244.503, 0.0115791, NaN, NaN, NaN, 0.0323506, "- N/A -   "
6.89, 244.857, 0.0115929, NaN, NaN, NaN, 0.0323506, "- N/A -   "
6.9, 245.092, 0.0116068, NaN, NaN, NaN, 0.0335714, "- N/A -   "
6.91, 245.328, 0.0116235, NaN, NaN, NaN, 0.0347922, "- N/A -   "
6.92, 245.6813, 0.0116374, NaN, NaN, NaN, 0.0347922, "- N/A -   "
6.93, 245.917, 0.0116513, NaN, NaN, NaN, 0.03601294, "- N/A -   "
6.94, 246.153, 0.0116679, NaN, NaN, NaN, 0.03601294, "- N/A -   "
6.95, 246.388, 0.011679, NaN, NaN, NaN, 0.0384545, "- N/A -   "
6.96, 246.742, 0.0116929, NaN, NaN, NaN, 0.0396753, "- N/A -   "
6.97, 246.86, 0.011704, NaN, NaN, NaN, 0.04211683, "- N/A -   "
6.98, 247.095, 0.0117207, NaN, NaN, NaN, 0.0433376, "- N/A -   "
6.99, 247.4487, 0.0117346, NaN, NaN, NaN, 0.0445584, "- N/A -   "
7, 247.567, 0.0117512, NaN, NaN, NaN, 0.0433376, "- N/A -   "
7.01, 247.92, 0.0117679, NaN, NaN, NaN, 0.0445584, "- N/A -   "
7.02, 248.273, 0.0117818, NaN, NaN, NaN, 0.0445584, "- N/A -   "
7.03, 248.627, 0.0117984, NaN, NaN, NaN, 0.0445584, "- N/A -   "
7.04, 248.745, 0.0118151, NaN, NaN, NaN, 0.0445584, "- N/A -   "
7.05, 249.216, 0.011829, NaN, NaN, NaN, 0.04577916, "- N/A -   "
7.06, 249.452, 0.0118456, NaN, NaN, NaN, 0.04577916, "- N/A -   "
7.07, 249.805, 0.0118623, NaN, NaN, NaN, 0.04699994, "- N/A -   "
7.08, 250.041, 0.0118762, NaN, NaN, NaN, 0.04699994, "- N/A -   "
7.09, 250.394, 0.0118956, NaN, NaN, NaN, 0.04699994, "- N/A -   "
7.1, 250.748, 0.0119123, NaN, NaN, NaN, 0.04699994, "- N/A -   "
7.11, 250.983, 0.0119289, NaN, NaN, NaN, 0.04577916, "- N/A -   "
7.12, 251.337, 0.0119484, NaN, NaN, NaN, 0.0445584, "- N/A -   "
7.13, 251.808, 0.0119678, NaN, NaN, NaN, 0.0433376, "- N/A -   "
7.14, 252.162, 0.0119872, NaN, NaN, NaN, 0.04211683, "- N/A -   "
7.15, 252.515, 0.0120067, NaN, NaN, NaN, 0.04089605, "- N/A -   "
7.16, 252.8687, 0.0120261, NaN, NaN, NaN, 0.0396753, "- N/A -   "
7.17, 253.222, 0.0120455, NaN, NaN, NaN, 0.0396753, "- N/A -   "
7.18, 253.576, 0.012065, NaN, NaN, NaN, 0.0384545, "- N/A -   "
7.19, 253.929, 0.0120816, NaN, NaN, NaN, 0.0372337, "- N/A -   "
7.2, 254.283, 0.0121011, NaN, NaN, NaN, 0.0372337, "- N/A -   "
7.21, 254.518, 0.0121177, NaN, NaN, NaN, 0.0372337, "- N/A -   "
7.22, 254.99, 0.0121316, NaN, NaN, NaN, 0.0372337, "- N/A -   "
7.23, 255.225, 0.01214829, NaN, NaN, NaN, 0.0372337, "- N/A -   "
7.24, 255.579, 0.0121677, NaN, NaN, NaN, 0.03601294, "- N/A -   "
7.25, 255.814, 0.0121844, NaN, NaN, NaN, 0.03601294, "- N/A -   "
7.26, 256.168, 0.012201, NaN, NaN, NaN, 0.03601294, "- N/A -   "
7.27, 256.5213, 0.0122205, NaN, NaN, NaN, 0.03601294, "- N/A -   "
7.28, 256.757, 0.0122344, NaN, NaN, NaN, 0.03601294, "- N/A -   "
7.29, 257.11, 0.01225103, NaN, NaN, NaN, 0.03601294, "- N/A -   "
7.3, 257.4639, 0.01226769, NaN, NaN, NaN, 0.03601294, "- N/A -   "
7.31, 257.6996, 0.0122871, NaN, NaN, NaN, 0.03601294, "- N/A -   "
7.32, 258.171, 0.0123038, NaN, NaN, NaN, 0.0347922, "- N/A -   "
7.33, 258.524, 0.0123232, NaN, NaN, NaN, 0.0335714, "- N/A -   "
7.34, 258.878, 0.01234544, NaN, NaN, NaN, 0.0323506, "- N/A -   "
7.35, 259.231, 0.0123621, NaN, NaN, NaN, 0.03112983, "- N/A -   "
7.36, 259.7026, 0.0123843, NaN, NaN, NaN, 0.0299091, "- N/A -   "
7.37, 260.0561, 0.012401, NaN, NaN, NaN, 0.0286883, "- N/A -   "
7.38, 260.292, 0.0124149, NaN, NaN, NaN, 0.0299091, "- N/A -   "
7.39, 260.527, 0.0124315, NaN, NaN, NaN, 0.0299091, "- N/A -   "
7.4, 260.8809, 0.01244818, NaN, NaN, NaN, 0.0299091, "- N/A -   "
7.41, 261.234, 0.0124676, NaN, NaN, NaN, 0.0299091, "- N/A -   "
7.42, 261.588, 0.0124843, NaN, NaN, NaN, 0.0299091, "- N/A -   "
7.43, 261.8235, 0.0125009, NaN, NaN, NaN, 0.0286883, "- N/A -   "
7.44, 262.177, 0.0125176, NaN, NaN, NaN, 0.0286883, "- N/A -   "
7.45, 262.648, 0.0125343, NaN, NaN, NaN, 0.0286883, "- N/A -   "
7.46, 262.8839, 0.0125481, NaN, NaN, NaN, 0.0299091, "- N/A -   "
7.47, 263.12, 0.01256758, NaN, NaN, NaN, 0.0286883, "- N/A -   "
7.48, 263.355, 0.01258424, NaN, NaN, NaN, 0.0286883, "- N/A -   "
7.49, 263.8265, 0.0126009, NaN, NaN, NaN, 0.0286883, "- N/A -   "
7.5, 264.18, 0.01261756, NaN, NaN, NaN, 0.0299091, "- N/A -   "
7.51, 264.416, 0.0126314, NaN, NaN, NaN, 0.0299091, "- N/A -   "
7.52, 264.769, 0.0126481, NaN, NaN, NaN, 0.0299091, "- N/A -   "
7.53, 265.0048, 0.0126648, NaN, NaN, NaN, 0.0299091, "- N/A -   "
7.54, 265.24, 0.0126759, NaN, NaN, NaN, 0.0323506, "- N/A -   "
7.55, 265.5939, 0.0126898, NaN, NaN, NaN, 0.0335714, "- N/A -   "
7.56, 265.83, 0.01270364, NaN, NaN, NaN, 0.0347922, "- N/A -   "
7.57, 265.9474, 0.0127203, NaN, NaN, NaN, 0.03601294, "- N/A -   "
7.58, 266.301, 0.0127342, NaN, NaN, NaN, 0.03601294, "- N/A -   "
7.59, 266.4187, 0.0127481, NaN, NaN, NaN, 0.0372337, "- N/A -   "
7.6, 266.89, 0.012762, NaN, NaN, NaN, 0.0384545, "- N/A -   "
7.61, 266.89, 0.0127786, NaN, NaN, NaN, 0.0396753, "- N/A -   "
7.63, 267.597, 0.01280638, NaN, NaN, NaN, 0.04089605, "- N/A -   "
7.65, 268.1861, 0.0128341, NaN, NaN, NaN, 0.0433376, "- N/A -   "
7.67, 268.7752, 0.0128647, NaN, NaN, NaN, 0.0445584, "- N/A -   "
7.69, 269.364, 0.012898, NaN, NaN, NaN, 0.0445584, "- N/A -   "
[...]
28.2, 1081.45, 0.0470826, NaN, NaN, NaN, 0.04577916, "- N/A -   "
28.27, 1084.67, 0.04720478, NaN, NaN, NaN, 0.0433376, "- N/A -   "
28.34, 1088.25, 0.04733529, NaN, NaN, NaN, 0.0372337, "- N/A -   "
28.41, 1092.064, 0.0474686, NaN, NaN, NaN, 0.0286883, "- N/A -   "
28.48, 1095.28, 0.0475907, NaN, NaN, NaN, 0.0274675, "- N/A -   "
28.55, 1098.15, 0.04769904, NaN, NaN, NaN, 0.0299091, "- N/A -   "
28.62, 1101.13, 0.0478073, NaN, NaN, NaN, 0.0335714, "- N/A -   "
28.69, 1103.99, 0.04791841, NaN, NaN, NaN, 0.03601294, "- N/A -   "
28.76, 1107.33, 0.04803503, NaN, NaN, NaN, 0.03601294, "- N/A -   "
28.83, 1109.95, 0.048135, NaN, NaN, NaN, 0.0433376, "- N/A -   "
28.9, 1112.814, 0.0482461, NaN, NaN, NaN, 0.04577916, "- N/A -   "
28.97, 1116.63, 0.0483793, NaN, NaN, NaN, 0.0384545, "- N/A -   "
29.04, 1120.21, 0.04850986, NaN, NaN, NaN, 0.0335714, "- N/A -   "
29.11, 1123.43, 0.0486293, NaN, NaN, NaN, 0.0323506, "- N/A -   "
29.18, 1126.17, 0.048732, NaN, NaN, NaN, 0.0372337, "- N/A -   "
29.25, 1129.27, 0.04884862, NaN, NaN, NaN, 0.0384545, "- N/A -   "
29.32, 1132.85, 0.0489763, NaN, NaN, NaN, 0.0323506, "- N/A -   "
29.39, 1135.83, 0.04908464, NaN, NaN, NaN, 0.03601294, "- N/A -   "
29.46, 1138.45, 0.04918738, NaN, NaN, NaN, 0.04211683, "- N/A -   "
29.53, 1141.67, 0.0493068, NaN, NaN, NaN, 0.04089605, "- N/A -   "
29.6, 1145.012, 0.0494262, NaN, NaN, NaN, 0.04089605, "- N/A -   "
29.67, 1148.47, 0.0495511, NaN, NaN, NaN, 0.0372337, "- N/A -   "
29.74, 1151.81, 0.0496705, NaN, NaN, NaN, 0.03601294, "- N/A -   "
29.81, 1154.91, 0.0497927, NaN, NaN, NaN, 0.0335714, "- N/A -   "
29.88, 1158.37, 0.0499149, NaN, NaN, NaN, 0.0299091, "- N/A -   "
29.95, 1161.47, 0.050026, NaN, NaN, NaN, 0.0323506, "- N/A -   "
30.02, 1164.57, 0.0501454, NaN, NaN, NaN, 0.0323506, "- N/A -   "
30.09, 1167.79, 0.05025921, NaN, NaN, NaN, 0.0323506, "- N/A -   "
30.16, 1170.65, 0.0503647, NaN, NaN, NaN, 0.0372337, "- N/A -   "
30.23, 1173.51, 0.0504758, NaN, NaN, NaN, 0.04089605, "- N/A -   "
30.3, 1176.49, 0.05058409, NaN, NaN, NaN, 0.0433376, "- N/A -   "
30.37, 1179.71, 0.05070349, NaN, NaN, NaN, 0.04211683, "- N/A -   "
30.44, 1183.77, 0.0508423, NaN, NaN, NaN, 0.0335714, "- N/A -   "
30.51, 1187.11, 0.05096173, NaN, NaN, NaN, 0.03112983, "- N/A -   "
30.58, 1189.97, 0.0510728, NaN, NaN, NaN, 0.0335714, "- N/A -   "
30.65, 1193.309, 0.051195, NaN, NaN, NaN, 0.03112983, "- N/A -   "
30.72, 1196.53, 0.0513144, NaN, NaN, NaN, 0.0299091, "- N/A -   "
30.79, 1199.27, 0.0514143, NaN, NaN, NaN, 0.0396753, "- N/A -   "
30.86, 1201.9, 0.0515143, NaN, NaN, NaN, 0.04577916, "- N/A -   "
30.93, 1204.76, 0.0516226, NaN, NaN, NaN, 0.0494415, "- N/A -   "
31, 1208.1, 0.0517448, NaN, NaN, NaN, 0.04699994, "- N/A -   "
31.07, 1211.91, 0.0518808, NaN, NaN, NaN, 0.0396753, "- N/A -   "
31.14, 1215.73, 0.05201689, NaN, NaN, NaN, 0.0299091, "- N/A -   "
31.21, 1219.31, 0.0521446, NaN, NaN, NaN, 0.0262467, "- N/A -   "
31.28, 1222.41, 0.05226125, NaN, NaN, NaN, 0.0250259, "- N/A -   "
31.35, 1225.27, 0.0523668, NaN, NaN, NaN, 0.0299091, "- N/A -   "
31.42, 1228.25, 0.0524751, NaN, NaN, NaN, 0.0335714, "- N/A -   "
31.49, 1230.87, 0.0525778, NaN, NaN, NaN, 0.04089605, "- N/A -   "
31.56, 1233.74, 0.0526805, NaN, NaN, NaN, 0.04577916, "- N/A -   "
31.63, 1236.96, 0.0527999, NaN, NaN, NaN, 0.04577916, "- N/A -   "
31.7, 1240.29, 0.05291934, NaN, NaN, NaN, 0.0433376, "- N/A -   "
31.77, 1243.75, 0.05304429, NaN, NaN, NaN, 0.0396753, "- N/A -   "
31.84, 1247.69, 0.05318313, NaN, NaN, NaN, 0.03112983, "- N/A -   "
31.91, 1250.79, 0.053297, NaN, NaN, NaN, 0.03112983, "- N/A -   "
31.98, 1253.53, 0.05340249, NaN, NaN, NaN, 0.03601294, "- N/A -   "
32.05, 1256.63, 0.05351356, NaN, NaN, NaN, 0.0384545, "- N/A -   "
32.12, 1259.97, 0.05363296, NaN, NaN, NaN, 0.0372337, "- N/A -   "
32.19, 1263.19, 0.0537496, NaN, NaN, NaN, 0.0372337, "- N/A -   "
32.26, 1265.93, 0.0538523, NaN, NaN, NaN, 0.0445584, "- N/A -   "
32.33, 1268.91, 0.0539634, NaN, NaN, NaN, 0.04699994, "- N/A -   "
32.4, 1272.73, 0.05409668, NaN, NaN, NaN, 0.0384545, "- N/A -   "
32.47, 1276.67, 0.0542355, NaN, NaN, NaN, 0.0299091, "- N/A -   "
32.54, 1279.65, 0.0543521, NaN, NaN, NaN, 0.0299091, "- N/A -   "
32.61, 1282.75, 0.0544604, NaN, NaN, NaN, 0.0323506, "- N/A -   "
32.68, 1286.087, 0.0545798, NaN, NaN, NaN, 0.03112983, "- N/A -   "
32.75, 1289.07, 0.0546937, NaN, NaN, NaN, 0.0335714, "- N/A -   "
32.82, 1292.17, 0.05480198, NaN, NaN, NaN, 0.03601294, "- N/A -   "
32.89, 1295.03, 0.0549103, NaN, NaN, NaN, 0.0396753, "- N/A -   "
32.96, 1298.13, 0.0550241, NaN, NaN, NaN, 0.04089605, "- N/A -   "
33.03, 1301.47, 0.05514074, NaN, NaN, NaN, 0.04089605, "- N/A -   "
33.1, 1304.81, 0.05526292, NaN, NaN, NaN, 0.0384545, "- N/A -   "
33.17, 1308.15, 0.0553851, NaN, NaN, NaN, 0.0372337, "- N/A -   "
33.24, 1311.49, 0.0555073, NaN, NaN, NaN, 0.0335714, "- N/A -   "
33.31, 1314.83, 0.0556267, NaN, NaN, NaN, 0.0323506, "- N/A -   "
33.38, 1317.81, 0.0557405, NaN, NaN, NaN, 0.0347922, "- N/A -   "
33.45, 1321.03, 0.05585436, NaN, NaN, NaN, 0.0347922, "- N/A -   "
33.52, 1324.25, 0.0559738, NaN, NaN, NaN, 0.0335714, "- N/A -   "
33.59, 1326.87, 0.05607373, NaN, NaN, NaN, 0.04089605, "- N/A -   "
33.66, 1329.97, 0.0561848, NaN, NaN, NaN, 0.0433376, "- N/A -   "
33.73, 1333.07, 0.0562986, NaN, NaN, NaN, 0.04577916, "- N/A -   "
33.8, 1336.65, 0.0564236, NaN, NaN, NaN, 0.04089605, "- N/A -   "
33.87, 1340.466, 0.05656244, NaN, NaN, NaN, 0.0323506, "- N/A -   "
33.94, 1343.8, 0.0566818, NaN, NaN, NaN, 0.0299091, "- N/A -   "
34.01, 1347.02, 0.0568012, NaN, NaN, NaN, 0.0286883, "- N/A -   "
34.08, 1350.483, 0.05692341, NaN, NaN, NaN, 0.0262467, "- N/A -   "
34.15, 1353.226, 0.0570317, NaN, NaN, NaN, 0.03112983, "- N/A -   "
34.22, 1356.21, 0.05714, NaN, NaN, NaN, 0.0347922, "- N/A -   "
34.29, 1358.83, 0.05723719, NaN, NaN, NaN, 0.04211683, "- N/A -   "
34.36, 1361.69, 0.0573427, NaN, NaN, NaN, 0.0482207, "- N/A -   "
34.43, 1365.15, 0.0574677, NaN, NaN, NaN, 0.0445584, "- N/A -   "
34.5, 1368.85, 0.0575982, NaN, NaN, NaN, 0.0372337, "- N/A -   "
34.57, 1372.31, 0.0577259, NaN, NaN, NaN, 0.0335714, "- N/A -   "
34.64, 1375.76, 0.05785085, NaN, NaN, NaN, 0.0299091, "- N/A -   "
34.71, 1378.865, 0.0579647, NaN, NaN, NaN, 0.0299091, "- N/A -   "
34.78, 1382.2, 0.0580841, NaN, NaN, NaN, 0.0299091, "- N/A -   "
34.85, 1385.19, 0.05819239, NaN, NaN, NaN, 0.0323506, "- N/A -   "
34.92, 1387.45, 0.0582896, NaN, NaN, NaN, 0.04089605, "- N/A -   "
34.99, 1390.55, 0.0583979, NaN, NaN, NaN, 0.0445584, "- N/A -   "
35.06, 1393.89, 0.05852, NaN, NaN, NaN, 0.0433376, "- N/A -   "
35.13, 1397.23, 0.0586394, NaN, NaN, NaN, 0.04089605, "- N/A -   "
35.2, 1400.81, 0.0587672, NaN, NaN, NaN, 0.03601294, "- N/A -   "
35.27, 1404.5, 0.05890324, NaN, NaN, NaN, 0.0274675, "- N/A -   "
35.34, 1407.84, 0.05902264, NaN, NaN, NaN, 0.0286883, "- N/A -   "
35.41, 1410.94, 0.05913371, NaN, NaN, NaN, 0.0299091, "- N/A -   "
35.48, 1413.57, 0.0592392, NaN, NaN, NaN, 0.03601294, "- N/A -   "
35.55, 1416.91, 0.0593531, NaN, NaN, NaN, 0.0372337, "- N/A -   "
35.62, 1419.77, 0.0594614, NaN, NaN, NaN, 0.0396753, "- N/A -   "
35.69, 1422.51, 0.0595669, NaN, NaN, NaN, 0.0445584, "- N/A -   "
35.76, 1425.85, 0.0596807, NaN, NaN, NaN, 0.04577916, "- N/A -   "
35.83, 1429.55, 0.059814, NaN, NaN, NaN, 0.0384545, "- N/A -   "
35.9, 1433.01, 0.0599417, NaN, NaN, NaN, 0.0335714, "- N/A -   "
35.97, 1435.87, 0.0600528, NaN, NaN, NaN, 0.0372337, "- N/A -   "
36.04, 1438.968, 0.0601639, NaN, NaN, NaN, 0.0384545, "- N/A -   "
36.11, 1442.43, 0.06028606, NaN, NaN, NaN, 0.03601294, "- N/A -   "
36.18, 1445.88, 0.060411, NaN, NaN, NaN, 0.0335714, "- N/A -   "
36.25, 1448.75, 0.0605193, NaN, NaN, NaN, 0.03601294, "- N/A -   "
36.32, 1451.49, 0.060622, NaN, NaN, NaN, 0.04211683, "- N/A -   "
36.39, 1454.95, 0.0607442, NaN, NaN, NaN, 0.0396753, "- N/A -   "
36.46, 1458.17, 0.06086085, NaN, NaN, NaN, 0.0396753, "- N/A -   "
36.53, 1461.626, 0.0609858, NaN, NaN, NaN, 0.03601294, "- N/A -   "
36.6, 1464.73, 0.0611024, NaN, NaN, NaN, 0.03601294, "- N/A -   "
36.67, 1468.07, 0.0612218, NaN, NaN, NaN, 0.0347922, "- N/A -   "
36.74, 1471.52, 0.0613468, NaN, NaN, NaN, 0.0323506, "- N/A -   "
36.81, 1474.62, 0.0614634, NaN, NaN, NaN, 0.03112983, "- N/A -   "
36.88, 1477.61, 0.0615745, NaN, NaN, NaN, 0.0335714, "- N/A -   "
36.95, 1480.83, 0.0616911, NaN, NaN, NaN, 0.0335714, "- N/A -   "
37.02, 1483.69, 0.0617938, NaN, NaN, NaN, 0.0396753, "- N/A -   "
37.09, 1486.55, 0.06190213, NaN, NaN, NaN, 0.0445584, "- N/A -   "
37.16, 1489.89, 0.0620188, NaN, NaN, NaN, 0.0433376, "- N/A -   "
37.19, 1491.32, 0.0620715, NaN, NaN, NaN, 0.04211683, "- N/A -   "