File: 2_Tensile_Data/Hamel_ForceTest_Bolt5_Test8.csv
Time, Load (lb), Position (in), AxialStrain (in), TransverseStrain (in), Auxiliary (), Control Out (V), Stress (psi)
0.0, 11.4409, 0.0, NaN, NaN, NaN, -0.007935055, "- N/A -   "
0.01, 11.4409, 0.0, NaN, NaN, NaN, -6.103888E-4, "- N/A -   "
0.02, 11.4409, 0.0, NaN, NaN, NaN, 0.006714277, "- N/A -   "
0.03, 11.4409, 0.0, NaN, NaN, NaN, 0.0238052, "- N/A -   "
0.04, 11.5589, 5.553504E-6, NaN, NaN, NaN, 0.04089605, "- N/A -   "
0.05, 11.7947, 1.66605e-05, NaN, NaN, NaN, 0.0555454, "- N/A -   "
0.06, 11.9127, 3.3321e-05, NaN, NaN, NaN, 0.0689739, "- N/A -   "
0.07, 12.2665, 5.27583e-05, NaN, NaN, NaN, 0.07874016, "- N/A -   "
0.08, 12.6204, 7.774905E-5, NaN, NaN, NaN, 0.0872856, "- N/A -   "
0.09, 13.09217, 0.000105517, NaN, NaN, NaN, 0.09461027, "- N/A -   "
0.1, 13.564, 0.000136061, NaN, NaN, NaN, 0.095831, "- N/A -   "
0.11, 14.0357, 0.000166605, NaN, NaN, NaN, 0.0897272, "- N/A -   "
0.12, 14.5075, 0.000194373, NaN, NaN, NaN, 0.084844, "- N/A -   "
0.13, 14.7434, 2.193634E-4, NaN, NaN, NaN, 0.0799609, "- N/A -   "
0.14, 15.2152, 2.471309E-4, NaN, NaN, NaN, 0.0762986, "- N/A -   "
0.15, 15.4511, 0.000269345, NaN, NaN, NaN, 0.07263627, "- N/A -   "
0.16, 15.805, 0.000288782, NaN, NaN, NaN, 0.07141549, "- N/A -   "
0.17, 15.9229, 0.000308219, NaN, NaN, NaN, 0.0701947, "- N/A -   "
0.18, 16.27675, 0.000327657, NaN, NaN, NaN, 0.0689739, "- N/A -   "
0.19, 16.6306, 0.000347094, NaN, NaN, NaN, 0.06775316, "- N/A -   "
0.2, 16.74854, 0.000366531, NaN, NaN, NaN, 0.06775316, "- N/A -   "
0.21, 17.1024, 3.859685E-4, NaN, NaN, NaN, 0.0653116, "- N/A -   "
0.22, 17.3383, 0.000402629, NaN, NaN, NaN, 0.0653116, "- N/A -   "
0.23, 17.5742, 0.000424843, NaN, NaN, NaN, 0.0640908, "- N/A -   "
0.24, 17.8101, 4.442803E-4, NaN, NaN, NaN, 0.06164927, "- N/A -   "
0.25, 18.046, 0.000463718, NaN, NaN, NaN, 0.0604285, "- N/A -   "
0.26, 18.16391, 4.831548E-4, NaN, NaN, NaN, 0.0592077, "- N/A -   "
0.27, 18.5178, 0.000502592, NaN, NaN, NaN, 0.0592077, "- N/A -   "
0.28, 18.7536, 5.192526E-4, NaN, NaN, NaN, 0.0579869, "- N/A -   "
0.29, 18.9895, 0.00053869, NaN, NaN, NaN, 0.05676616, "- N/A -   "
0.3, 19.2254, 5.581271E-4, NaN, NaN, NaN, 0.0555454, "- N/A -   "
0.31, 19.4613, 0.000577564, NaN, NaN, NaN, 0.0543246, "- N/A -   "
0.36, 20.8767, 0.000677527, NaN, NaN, NaN, 0.04699994, "- N/A -   "
0.41, 22.0562, 7.774905E-4, NaN, NaN, NaN, 0.0396753, "- N/A -   "
0.46, 23.2357, 8.635698E-4, NaN, NaN, NaN, 0.0384545, "- N/A -   "
0.51, 24.5331, 0.000957979, NaN, NaN, NaN, 0.0335714, "- N/A -   "
0.56, 25.5946, 0.00105239, NaN, NaN, NaN, 0.0286883, "- N/A -   "
0.61, 26.7741, 0.00113291, NaN, NaN, NaN, 0.03112983, "- N/A -   "
0.66, 27.8356, 0.00121066, NaN, NaN, NaN, 0.0323506, "- N/A -   "
0.71, 28.89713, 0.00128564, NaN, NaN, NaN, 0.03601294, "- N/A -   "
0.76, 29.84071, 0.00135783, NaN, NaN, NaN, 0.04211683, "- N/A -   "
0.81, 30.9022, 0.00143558, NaN, NaN, NaN, 0.0433376, "- N/A -   "
0.86, 32.08171, 0.00151611, NaN, NaN, NaN, 0.0445584, "- N/A -   "
0.91, 33.2612, 0.00160219, NaN, NaN, NaN, 0.0445584, "- N/A -   "
0.96, 34.6766, 0.00168549, NaN, NaN, NaN, 0.0433376, "- N/A -   "
1.01, 35.97398, 0.00177712, NaN, NaN, NaN, 0.0396753, "- N/A -   "
1.06, 37.3893, 0.00187153, NaN, NaN, NaN, 0.03601294, "- N/A -   "
1.11, 38.8047, 0.001968717, NaN, NaN, NaN, 0.0299091, "- N/A -   "
1.16, 40.22009, 0.0020548, NaN, NaN, NaN, 0.0274675, "- N/A -   "
1.21, 41.2816, 0.00213532, NaN, NaN, NaN, 0.0286883, "- N/A -   "
1.26, 42.4611, 0.00221585, NaN, NaN, NaN, 0.0299091, "- N/A -   "
1.31, 43.6406, 0.00228804, NaN, NaN, NaN, 0.0347922, "- N/A -   "
1.36, 44.93799, 0.002371346, NaN, NaN, NaN, 0.03601294, "- N/A -   "
1.41, 46.11746, 0.00245187, NaN, NaN, NaN, 0.03601294, "- N/A -   "
1.46, 47.2969, 0.0025324, NaN, NaN, NaN, 0.0384545, "- N/A -   "
1.51, 48.3585, 0.00260737, NaN, NaN, NaN, 0.04211683, "- N/A -   "
1.56, 49.6559, 0.00267957, NaN, NaN, NaN, 0.04577916, "- N/A -   "
1.61, 50.83536, 0.00276287, NaN, NaN, NaN, 0.04577916, "- N/A -   "
1.66, 52.25073, 0.002854501, NaN, NaN, NaN, 0.0433376, "- N/A -   "
1.71, 53.784, 0.00294613, NaN, NaN, NaN, 0.0396753, "- N/A -   "
1.76, 55.3174, 0.00303777, NaN, NaN, NaN, 0.0347922, "- N/A -   "
1.81, 56.6148, 0.00312662, NaN, NaN, NaN, 0.0323506, "- N/A -   "
1.86, 57.91221, 0.00320715, NaN, NaN, NaN, 0.0335714, "- N/A -   "
1.91, 59.2096, 0.00328767, NaN, NaN, NaN, 0.0347922, "- N/A -   "
1.96, 60.5071, 0.00337375, NaN, NaN, NaN, 0.0335714, "- N/A -   "
2.01, 61.9224, 0.00345983, NaN, NaN, NaN, 0.0323506, "- N/A -   "
2.06, 63.1019, 0.00353758, NaN, NaN, NaN, 0.0347922, "- N/A -   "
2.11, 64.28137, 0.003615331, NaN, NaN, NaN, 0.0372337, "- N/A -   "
2.16, 65.5788, 0.00369863, NaN, NaN, NaN, 0.0384545, "- N/A -   "
2.21, 66.75827, 0.003770829, NaN, NaN, NaN, 0.04211683, "- N/A -   "
2.26, 68.05569, 0.00385691, NaN, NaN, NaN, 0.04089605, "- N/A -   "
2.31, 69.35311, 0.00394299, NaN, NaN, NaN, 0.04089605, "- N/A -   "
2.36, 70.7685, 0.00403462, NaN, NaN, NaN, 0.0372337, "- N/A -   "
2.41, 72.1838, 0.0041207, NaN, NaN, NaN, 0.0347922, "- N/A -   "
2.46, 73.36333, 0.004206779, NaN, NaN, NaN, 0.0347922, "- N/A -   "
2.51, 74.66075, 0.004287305, NaN, NaN, NaN, 0.0347922, "- N/A -   "
2.56, 76.07612, 0.004376161, NaN, NaN, NaN, 0.0323506, "- N/A -   "
2.61, 77.37354, 0.004465017, NaN, NaN, NaN, 0.03112983, "- N/A -   "
2.66, 78.67096, 0.004545543, NaN, NaN, NaN, 0.03112983, "- N/A -   "
2.71, 79.73249, 0.004623292, NaN, NaN, NaN, 0.0335714, "- N/A -   "
2.76, 81.0299, 0.00470659, NaN, NaN, NaN, 0.0347922, "- N/A -   "
2.81, 82.44528, 0.00479545, NaN, NaN, NaN, 0.0323506, "- N/A -   "
2.86, 83.50681, 0.004864869, NaN, NaN, NaN, 0.0372337, "- N/A -   "
2.91, 84.56834, 0.004942619, NaN, NaN, NaN, 0.04089605, "- N/A -   "
2.96, 85.86576, 0.005017591, NaN, NaN, NaN, 0.0433376, "- N/A -   "
3.01, 87.16318, 0.005098117, NaN, NaN, NaN, 0.0445584, "- N/A -   "
3.06, 88.4606, 0.005181419, NaN, NaN, NaN, 0.0445584, "- N/A -   "
3.11, 89.87598, 0.00527305, NaN, NaN, NaN, 0.04211683, "- N/A -   "
3.16, 91.52724, 0.00536746, NaN, NaN, NaN, 0.03601294, "- N/A -   "
3.21, 93.0606, 0.00545632, NaN, NaN, NaN, 0.0335714, "- N/A -   "
3.26, 94.24, 0.00553684, NaN, NaN, NaN, 0.0347922, "- N/A -   "
3.31, 95.6554, 0.005622922, NaN, NaN, NaN, 0.0335714, "- N/A -   "
3.36, 97.07077, 0.00571456, NaN, NaN, NaN, 0.0299091, "- N/A -   "
3.41, 98.3682, 0.00579508, NaN, NaN, NaN, 0.03112983, "- N/A -   "
3.46, 99.66561, 0.00587561, NaN, NaN, NaN, 0.0323506, "- N/A -   "
3.51, 100.963, 0.00595613, NaN, NaN, NaN, 0.0335714, "- N/A -   "
3.56, 102.025, 0.006025552, NaN, NaN, NaN, 0.0396753, "- N/A -   "
3.61, 103.086, 0.00609775, NaN, NaN, NaN, 0.04577916, "- N/A -   "
3.66, 104.501, 0.00617272, NaN, NaN, NaN, 0.0494415, "- N/A -   "
3.71, 106.035, 0.006261576, NaN, NaN, NaN, 0.04699994, "- N/A -   "
3.76, 107.686, 0.006358762, NaN, NaN, NaN, 0.04089605, "- N/A -   "
3.81, 109.3373, 0.006453172, NaN, NaN, NaN, 0.03601294, "- N/A -   "
3.86, 110.753, 0.006544804, NaN, NaN, NaN, 0.0335714, "- N/A -   "
3.91, 112.168, 0.006630884, NaN, NaN, NaN, 0.0323506, "- N/A -   "
3.96, 113.701, 0.00672252, NaN, NaN, NaN, 0.0286883, "- N/A -   "
4.01, 115.117, 0.00680304, NaN, NaN, NaN, 0.0286883, "- N/A -   "
4.06, 116.5321, 0.00688634, NaN, NaN, NaN, 0.0286883, "- N/A -   "
4.11, 117.712, 0.006961317, NaN, NaN, NaN, 0.0323506, "- N/A -   "
4.16, 119.009, 0.00703629, NaN, NaN, NaN, 0.0372337, "- N/A -   "
4.21, 120.306, 0.00711404, NaN, NaN, NaN, 0.0384545, "- N/A -   "
4.26, 121.486, 0.007183457, NaN, NaN, NaN, 0.0445584, "- N/A -   "
4.31, 122.901, 0.00726676, NaN, NaN, NaN, 0.04577916, "- N/A -   "
4.36, 124.317, 0.007347285, NaN, NaN, NaN, 0.04577916, "- N/A -   "
4.41, 125.85, 0.007436141, NaN, NaN, NaN, 0.0433376, "- N/A -   "
4.46, 127.501, 0.007524997, NaN, NaN, NaN, 0.04211683, "- N/A -   "
4.51, 129.035, 0.007619407, NaN, NaN, NaN, 0.03601294, "- N/A -   "
4.56, 130.804, 0.00771659, NaN, NaN, NaN, 0.0299091, "- N/A -   "
4.61, 132.219, 0.0077999, NaN, NaN, NaN, 0.0299091, "- N/A -   "
4.66, 133.517, 0.007880421, NaN, NaN, NaN, 0.03112983, "- N/A -   "
4.71, 134.932, 0.007958171, NaN, NaN, NaN, 0.0335714, "- N/A -   "
4.76, 136.229, 0.008033143, NaN, NaN, NaN, 0.0372337, "- N/A -   "
4.81, 137.6447, 0.008113669, NaN, NaN, NaN, 0.0384545, "- N/A -   "
4.86, 139.178, 0.008199749, NaN, NaN, NaN, 0.0372337, "- N/A -   "
4.91, 140.593, 0.00828027, NaN, NaN, NaN, 0.0396753, "- N/A -   "
4.96, 141.891, 0.008358023, NaN, NaN, NaN, 0.04211683, "- N/A -   "
5.01, 143.188, 0.008433, NaN, NaN, NaN, 0.0445584, "- N/A -   "
5.06, 144.957, 0.008521851, NaN, NaN, NaN, 0.0433376, "- N/A -   "
5.11, 146.6087, 0.008616261, NaN, NaN, NaN, 0.0372337, "- N/A -   "
5.16, 148.378, 0.008710671, NaN, NaN, NaN, 0.0323506, "- N/A -   "
5.21, 149.911, 0.008802303, NaN, NaN, NaN, 0.0286883, "- N/A -   "
5.26, 151.327, 0.00888283, NaN, NaN, NaN, 0.03112983, "- N/A -   "
5.31, 152.742, 0.008955025, NaN, NaN, NaN, 0.0347922, "- N/A -   "
5.36, 154.157, 0.00903555, NaN, NaN, NaN, 0.03601294, "- N/A -   "
5.41, 155.809, 0.009124407, NaN, NaN, NaN, 0.0335714, "- N/A -   "
5.46, 157.46, 0.009213262, NaN, NaN, NaN, 0.03112983, "- N/A -   "
5.51, 158.7573, 0.009285458, NaN, NaN, NaN, 0.03601294, "- N/A -   "
5.56, 160.2906, 0.009365984, NaN, NaN, NaN, 0.0384545, "- N/A -   "
5.61, 161.588, 0.009438179, NaN, NaN, NaN, 0.04211683, "- N/A -   "
5.66, 163.475, 0.009524259, NaN, NaN, NaN, 0.04089605, "- N/A -   "
5.71, 165.2444, 0.009610338, NaN, NaN, NaN, 0.0396753, "- N/A -   "
5.76, 167.014, 0.009693641, NaN, NaN, NaN, 0.0396753, "- N/A -   "
5.81, 168.783, 0.009776944, NaN, NaN, NaN, 0.0396753, "- N/A -   "
5.86, 170.316, 0.009863023, NaN, NaN, NaN, 0.0396753, "- N/A -   "
5.91, 172.203, 0.009949102, NaN, NaN, NaN, 0.0384545, "- N/A -   "
5.96, 174.09, 0.0100352, NaN, NaN, NaN, 0.03601294, "- N/A -   "
6.01, 175.86, 0.0101268, NaN, NaN, NaN, 0.0335714, "- N/A -   "
6.06, 177.629, 0.01020734, NaN, NaN, NaN, 0.0335714, "- N/A -   "
6.11, 179.3981, 0.0102906, NaN, NaN, NaN, 0.0335714, "- N/A -   "
6.16, 180.813, 0.0103712, NaN, NaN, NaN, 0.03601294, "- N/A -   "
6.21, 182.701, 0.01045447, NaN, NaN, NaN, 0.0347922, "- N/A -   "
6.26, 184.3519, 0.010535, NaN, NaN, NaN, 0.03601294, "- N/A -   "
6.31, 186.121, 0.0106155, NaN, NaN, NaN, 0.0372337, "- N/A -   "
6.36, 187.654, 0.0106933, NaN, NaN, NaN, 0.0396753, "- N/A -   "
6.41, 189.3057, 0.01077102, NaN, NaN, NaN, 0.04211683, "- N/A -   "
6.46, 191.193, 0.0108543, NaN, NaN, NaN, 0.0433376, "- N/A -   "
6.51, 192.962, 0.010946, NaN, NaN, NaN, 0.0384545, "- N/A -   "
6.56, 195.085, 0.0110431, NaN, NaN, NaN, 0.0323506, "- N/A -   "
6.59, 196.265, 0.0110987, NaN, NaN, NaN, 0.0299091, "- N/A -   "
6.6, 196.5, 0.0111153, NaN, NaN, NaN, 0.0299091, "- N/A -   "
6.61, 196.972, 0.0111292, NaN, NaN, NaN, 0.03112983, "- N/A -   "
6.63, 197.562, 0.0111653, NaN, NaN, NaN, 0.0299091, "- N/A -   "
6.65, 198.27, 0.0111959, NaN, NaN, NaN, 0.03112983, "- N/A -   "
6.67, 198.859, 0.0112264, NaN, NaN, NaN, 0.0335714, "- N/A -   "
6.69, 199.331, 0.011257, NaN, NaN, NaN, 0.0335714, "- N/A -   "
6.71, 200.157, 0.0112903, NaN, NaN, NaN, 0.0335714, "- N/A -   "
6.73, 200.865, 0.0113236, NaN, NaN, NaN, 0.0335714, "- N/A -   "
6.75, 201.454, 0.0113597, NaN, NaN, NaN, 0.0335714, "- N/A -   "
6.77, 202.28, 0.011393, NaN, NaN, NaN, 0.0323506, "- N/A -   "
6.79, 203.106, 0.0114347, NaN, NaN, NaN, 0.0299091, "- N/A -   "
6.81, 203.813, 0.0114708, NaN, NaN, NaN, 0.0274675, "- N/A -   "
6.83, 204.521, 0.0115041, NaN, NaN, NaN, 0.0286883, "- N/A -   "
6.85, 205.111, 0.0115346, NaN, NaN, NaN, 0.0286883, "- N/A -   "
6.87, 205.818, 0.0115624, NaN, NaN, NaN, 0.03112983, "- N/A -   "
6.89, 206.408, 0.0115929, NaN, NaN, NaN, 0.0323506, "- N/A -   "
6.91, 206.88, 0.0116235, NaN, NaN, NaN, 0.0335714, "- N/A -   "
6.93, 207.4696, 0.0116513, NaN, NaN, NaN, 0.03601294, "- N/A -   "
6.95, 208.059, 0.0116818, NaN, NaN, NaN, 0.0372337, "- N/A -   "
6.97, 208.649, 0.0117096, NaN, NaN, NaN, 0.0396753, "- N/A -   "
6.99, 209.239, 0.0117373, NaN, NaN, NaN, 0.04211683, "- N/A -   "
7.01, 209.829, 0.0117679, NaN, NaN, NaN, 0.0433376, "- N/A -   "
7.03, 210.418, 0.0118012, NaN, NaN, NaN, 0.0445584, "- N/A -   "
7.05, 211.126, 0.011829, NaN, NaN, NaN, 0.04577916, "- N/A -   "
7.07, 211.716, 0.0118595, NaN, NaN, NaN, 0.04699994, "- N/A -   "
7.09, 212.4234, 0.0118956, NaN, NaN, NaN, 0.04699994, "- N/A -   "
7.11, 213.131, 0.0119317, NaN, NaN, NaN, 0.04577916, "- N/A -   "
7.13, 214.075, 0.0119678, NaN, NaN, NaN, 0.0433376, "- N/A -   "
7.15, 214.782, 0.0120067, NaN, NaN, NaN, 0.04089605, "- N/A -   "
7.17, 215.608, 0.0120428, NaN, NaN, NaN, 0.0396753, "- N/A -   "
7.19, 216.316, 0.0120789, NaN, NaN, NaN, 0.0384545, "- N/A -   "
7.21, 217.023, 0.012115, NaN, NaN, NaN, 0.0384545, "- N/A -   "
7.23, 217.731, 0.0121511, NaN, NaN, NaN, 0.0372337, "- N/A -   "
7.25, 218.4387, 0.0121844, NaN, NaN, NaN, 0.03601294, "- N/A -   "
7.27, 219.1464, 0.0122177, NaN, NaN, NaN, 0.03601294, "- N/A -   "
7.29, 219.736, 0.0122538, NaN, NaN, NaN, 0.03601294, "- N/A -   "
7.31, 220.444, 0.0122899, NaN, NaN, NaN, 0.0347922, "- N/A -   "
7.33, 221.269, 0.0123232, NaN, NaN, NaN, 0.0335714, "- N/A -   "
7.35, 222.095, 0.0123621, NaN, NaN, NaN, 0.03112983, "- N/A -   "
7.37, 222.921, 0.012401, NaN, NaN, NaN, 0.0299091, "- N/A -   "
7.39, 223.51, 0.0124343, NaN, NaN, NaN, 0.0286883, "- N/A -   "
7.41, 224.218, 0.01246484, NaN, NaN, NaN, 0.0299091, "- N/A -   "
7.43, 225.044, 0.0125009, NaN, NaN, NaN, 0.0286883, "- N/A -   "
7.45, 225.6335, 0.0125343, NaN, NaN, NaN, 0.0286883, "- N/A -   "
7.47, 226.223, 0.01256758, NaN, NaN, NaN, 0.0299091, "- N/A -   "
7.49, 227.049, 0.0126009, NaN, NaN, NaN, 0.0286883, "- N/A -   "
7.51, 227.639, 0.0126342, NaN, NaN, NaN, 0.0299091, "- N/A -   "
7.53, 228.228, 0.012662, NaN, NaN, NaN, 0.03112983, "- N/A -   "
7.55, 228.818, 0.0126898, NaN, NaN, NaN, 0.0335714, "- N/A -   "
7.57, 229.29, 0.0127175, NaN, NaN, NaN, 0.03601294, "- N/A -   "
7.59, 229.88, 0.0127481, NaN, NaN, NaN, 0.0384545, "- N/A -   "
7.61, 230.351, 0.0127731, NaN, NaN, NaN, 0.04089605, "- N/A -   "
7.63, 230.941, 0.0128008, NaN, NaN, NaN, 0.0433376, "- N/A -   "
7.65, 231.531, 0.01283137, NaN, NaN, NaN, 0.0445584, "- N/A -   "
7.67, 232.239, 0.0128675, NaN, NaN, NaN, 0.0445584, "- N/A -   "
7.69, 233.0642, 0.0129036, NaN, NaN, NaN, 0.0433376, "- N/A -   "
7.71, 233.89, 0.0129369, NaN, NaN, NaN, 0.04211683, "- N/A -   "
7.73, 234.48, 0.0129702, NaN, NaN, NaN, 0.04211683, "- N/A -   "
7.75, 235.187, 0.0130063, NaN, NaN, NaN, 0.04211683, "- N/A -   "
7.77, 235.895, 0.0130396, NaN, NaN, NaN, 0.04211683, "- N/A -   "
7.79, 236.721, 0.0130729, NaN, NaN, NaN, 0.04211683, "- N/A -   "
7.81, 237.428, 0.0131063, NaN, NaN, NaN, 0.04211683, "- N/A -   "
7.83, 238.018, 0.01313959, NaN, NaN, NaN, 0.04211683, "- N/A -   "
7.85, 238.726, 0.0131729, NaN, NaN, NaN, 0.04089605, "- N/A -   "
7.87, 239.669, 0.0132146, NaN, NaN, NaN, 0.0372337, "- N/A -   "
7.89, 240.495, 0.01325066, NaN, NaN, NaN, 0.03601294, "- N/A -   "
7.91, 241.321, 0.0132923, NaN, NaN, NaN, 0.0335714, "- N/A -   "
7.93, 242.2641, 0.013334, NaN, NaN, NaN, 0.0299091, "- N/A -   "
7.95, 242.971, 0.01337006, NaN, NaN, NaN, 0.0274675, "- N/A -   "
7.97, 243.7961, 0.0134062, NaN, NaN, NaN, 0.0262467, "- N/A -   "
7.99, 244.503, 0.0134423, NaN, NaN, NaN, 0.0262467, "- N/A -   "
8.01, 245.21, 0.0134756, NaN, NaN, NaN, 0.0250259, "- N/A -   "
8.03, 245.799, 0.0135061, NaN, NaN, NaN, 0.0262467, "- N/A -   "
8.05, 246.506, 0.0135367, NaN, NaN, NaN, 0.0274675, "- N/A -   "
8.07, 247.213, 0.01356721, NaN, NaN, NaN, 0.0286883, "- N/A -   "
8.09, 247.684, 0.0135978, NaN, NaN, NaN, 0.03112983, "- N/A -   "
8.11, 248.273, 0.0136255, NaN, NaN, NaN, 0.0323506, "- N/A -   "
8.13, 249.098, 0.0136588, NaN, NaN, NaN, 0.0335714, "- N/A -   "
8.15, 249.57, 0.01368661, NaN, NaN, NaN, 0.03601294, "- N/A -   "
8.17, 250.041, 0.0137172, NaN, NaN, NaN, 0.0372337, "- N/A -   "
8.19, 250.748, 0.0137477, NaN, NaN, NaN, 0.0384545, "- N/A -   "
8.21, 251.455, 0.01378102, NaN, NaN, NaN, 0.0384545, "- N/A -   "
8.23, 252.162, 0.01381434, NaN, NaN, NaN, 0.0384545, "- N/A -   "
8.25, 252.8687, 0.0138504, NaN, NaN, NaN, 0.0372337, "- N/A -   "
8.27, 253.576, 0.01388376, NaN, NaN, NaN, 0.0384545, "- N/A -   "
8.29, 254.165, 0.0139143, NaN, NaN, NaN, 0.0384545, "- N/A -   "
8.31, 254.7539, 0.0139448, NaN, NaN, NaN, 0.04089605, "- N/A -   "
8.33, 255.461, 0.0139726, NaN, NaN, NaN, 0.04211683, "- N/A -   "
8.35, 256.168, 0.0140059, NaN, NaN, NaN, 0.04211683, "- N/A -   "
8.37, 256.757, 0.0140365, NaN, NaN, NaN, 0.0433376, "- N/A -   "
8.39, 257.346, 0.014067, NaN, NaN, NaN, 0.0445584, "- N/A -   "
8.41, 258.053, 0.0140976, NaN, NaN, NaN, 0.04577916, "- N/A -   "
8.43, 258.76, 0.01413089, NaN, NaN, NaN, 0.04577916, "- N/A -   "
8.45, 259.467, 0.0141642, NaN, NaN, NaN, 0.04577916, "- N/A -   "
8.47, 260.292, 0.0142003, NaN, NaN, NaN, 0.0445584, "- N/A -   "
8.49, 260.9987, 0.0142392, NaN, NaN, NaN, 0.04211683, "- N/A -   "
8.51, 261.9413, 0.0142753, NaN, NaN, NaN, 0.04089605, "- N/A -   "
8.53, 262.766, 0.0143169, NaN, NaN, NaN, 0.0372337, "- N/A -   "
8.55, 263.591, 0.0143558, NaN, NaN, NaN, 0.0347922, "- N/A -   "
8.57, 264.416, 0.0143947, NaN, NaN, NaN, 0.0335714, "- N/A -   "
8.59, 265.123, 0.014428, NaN, NaN, NaN, 0.0323506, "- N/A -   "
8.61, 265.83, 0.0144613, NaN, NaN, NaN, 0.0323506, "- N/A -   "
[...]
19.78, 687.964, 0.03306556, NaN, NaN, NaN, 0.0372337, "- N/A -   "
19.92, 693.523, 0.03329881, NaN, NaN, NaN, 0.0384545, "- N/A -   "
20.06, 699.083, 0.0335237, NaN, NaN, NaN, 0.04211683, "- N/A -   "
20.2, 705.2333, 0.0337709, NaN, NaN, NaN, 0.03601294, "- N/A -   "
20.34, 710.911, 0.03400688, NaN, NaN, NaN, 0.0347922, "- N/A -   "
20.48, 717.061, 0.0342568, NaN, NaN, NaN, 0.0274675, "- N/A -   "
20.62, 721.7926, 0.0344567, NaN, NaN, NaN, 0.04089605, "- N/A -   "
20.76, 727.47, 0.03468163, NaN, NaN, NaN, 0.04577916, "- N/A -   "
20.9, 733.6206, 0.03493987, NaN, NaN, NaN, 0.0335714, "- N/A -   "
21.04, 739.653, 0.0351842, NaN, NaN, NaN, 0.0286883, "- N/A -   "
21.18, 745.094, 0.0354036, NaN, NaN, NaN, 0.0347922, "- N/A -   "
21.32, 750.18, 0.0356146, NaN, NaN, NaN, 0.0445584, "- N/A -   "
21.46, 756.094, 0.035859, NaN, NaN, NaN, 0.0396753, "- N/A -   "
21.6, 762.481, 0.0361144, NaN, NaN, NaN, 0.0299091, "- N/A -   "
21.74, 768.277, 0.0363477, NaN, NaN, NaN, 0.03112983, "- N/A -   "
21.88, 773.8361, 0.0365698, NaN, NaN, NaN, 0.03601294, "- N/A -   "
22.02, 779.159, 0.0367892, NaN, NaN, NaN, 0.0433376, "- N/A -   "
22.16, 785.1911, 0.037028, NaN, NaN, NaN, 0.0396753, "- N/A -   "
22.3, 791.46, 0.0372779, NaN, NaN, NaN, 0.0323506, "- N/A -   "
22.44, 797.0192, 0.03750559, NaN, NaN, NaN, 0.0347922, "- N/A -   "
22.58, 802.697, 0.03773606, NaN, NaN, NaN, 0.03601294, "- N/A -   "
22.72, 808.256, 0.0379582, NaN, NaN, NaN, 0.04089605, "- N/A -   "
22.86, 814.406, 0.0382026, NaN, NaN, NaN, 0.03601294, "- N/A -   "
23, 820.2023, 0.0384386, NaN, NaN, NaN, 0.03601294, "- N/A -   "
23.14, 826.1163, 0.0386802, NaN, NaN, NaN, 0.0323506, "- N/A -   "
23.28, 832.0303, 0.0389134, NaN, NaN, NaN, 0.03112983, "- N/A -   "
23.42, 836.9981, 0.0391217, NaN, NaN, NaN, 0.04211683, "- N/A -   "
23.56, 842.7938, 0.0393549, NaN, NaN, NaN, 0.04211683, "- N/A -   "
23.7, 849.181, 0.0396048, NaN, NaN, NaN, 0.0347922, "- N/A -   "
23.84, 855.2134, 0.03984639, NaN, NaN, NaN, 0.03112983, "- N/A -   "
23.98, 860.7725, 0.0400685, NaN, NaN, NaN, 0.03601294, "- N/A -   "
24.12, 865.74, 0.04027401, NaN, NaN, NaN, 0.0482207, "- N/A -   "
24.26, 872.482, 0.04053502, NaN, NaN, NaN, 0.03601294, "- N/A -   "
24.4, 878.9878, 0.0407933, NaN, NaN, NaN, 0.0262467, "- N/A -   "
24.54, 884.784, 0.04102651, NaN, NaN, NaN, 0.0250259, "- N/A -   "
24.68, 889.3965, 0.0412209, NaN, NaN, NaN, 0.04211683, "- N/A -   "
24.82, 894.7191, 0.0414347, NaN, NaN, NaN, 0.05066227, "- N/A -   "
24.96, 901.3429, 0.0416929, NaN, NaN, NaN, 0.04089605, "- N/A -   "
25.1, 908.0849, 0.04195672, NaN, NaN, NaN, 0.0262467, "- N/A -   "
25.24, 913.526, 0.0421678, NaN, NaN, NaN, 0.03601294, "- N/A -   "
25.38, 919.085, 0.0423899, NaN, NaN, NaN, 0.04089605, "- N/A -   "
25.52, 924.6442, 0.04261481, NaN, NaN, NaN, 0.0445584, "- N/A -   "
25.66, 931.623, 0.0428842, NaN, NaN, NaN, 0.0286883, "- N/A -   "
25.8, 937.064, 0.0431063, NaN, NaN, NaN, 0.0347922, "- N/A -   "
25.94, 943.2143, 0.04334232, NaN, NaN, NaN, 0.0323506, "- N/A -   "
26.08, 948.6552, 0.0435589, NaN, NaN, NaN, 0.0396753, "- N/A -   "
26.22, 954.8058, 0.04379771, NaN, NaN, NaN, 0.0384545, "- N/A -   "
26.36, 960.72, 0.04403373, NaN, NaN, NaN, 0.0372337, "- N/A -   "
26.5, 966.8705, 0.04427253, NaN, NaN, NaN, 0.0347922, "- N/A -   "
26.64, 972.548, 0.04449745, NaN, NaN, NaN, 0.0384545, "- N/A -   "
26.78, 978.2254, 0.0447196, NaN, NaN, NaN, 0.0433376, "- N/A -   "
26.92, 984.376, 0.0449556, NaN, NaN, NaN, 0.0433376, "- N/A -   "
27.06, 991, 0.0452139, NaN, NaN, NaN, 0.03112983, "- N/A -   "
27.2, 996.796, 0.04544432, NaN, NaN, NaN, 0.0323506, "- N/A -   "
27.34, 1002.83, 0.04567757, NaN, NaN, NaN, 0.0323506, "- N/A -   "
27.48, 1008.03, 0.0458858, NaN, NaN, NaN, 0.0433376, "- N/A -   "
27.62, 1014.19, 0.0461246, NaN, NaN, NaN, 0.04089605, "- N/A -   "
27.76, 1020.63, 0.0463718, NaN, NaN, NaN, 0.0347922, "- N/A -   "
27.9, 1027.07, 0.0466189, NaN, NaN, NaN, 0.0286883, "- N/A -   "
28.04, 1032.32, 0.04682714, NaN, NaN, NaN, 0.0396753, "- N/A -   "
28.18, 1037.92, 0.04704651, NaN, NaN, NaN, 0.04577916, "- N/A -   "
28.32, 1044.244, 0.0472936, NaN, NaN, NaN, 0.0396753, "- N/A -   "
28.46, 1051.16, 0.04755465, NaN, NaN, NaN, 0.0274675, "- N/A -   "
28.6, 1056.88, 0.04777957, NaN, NaN, NaN, 0.0323506, "- N/A -   "
28.74, 1062.61, 0.0480045, NaN, NaN, NaN, 0.03601294, "- N/A -   "
28.88, 1068.21, 0.04821552, NaN, NaN, NaN, 0.0445584, "- N/A -   "
29.02, 1074.77, 0.04847098, NaN, NaN, NaN, 0.0347922, "- N/A -   "
29.16, 1080.74, 0.0487015, NaN, NaN, NaN, 0.03601294, "- N/A -   "
29.3, 1086.94, 0.04894025, NaN, NaN, NaN, 0.0335714, "- N/A -   "
29.44, 1092.541, 0.0491596, NaN, NaN, NaN, 0.04089605, "- N/A -   "
29.58, 1098.5, 0.0493929, NaN, NaN, NaN, 0.04089605, "- N/A -   "
29.72, 1104.94, 0.0496344, NaN, NaN, NaN, 0.03601294, "- N/A -   "
29.86, 1111.26, 0.04988157, NaN, NaN, NaN, 0.03112983, "- N/A -   "
30, 1117.46, 0.0501148, NaN, NaN, NaN, 0.03112983, "- N/A -   "
30.14, 1123.19, 0.05033696, NaN, NaN, NaN, 0.0347922, "- N/A -   "
30.28, 1128.44, 0.0505452, NaN, NaN, NaN, 0.04699994, "- N/A -   "
30.42, 1134.88, 0.05078679, NaN, NaN, NaN, 0.04211683, "- N/A -   "
30.56, 1141.55, 0.05104781, NaN, NaN, NaN, 0.0299091, "- N/A -   "
30.7, 1147.64, 0.0512811, NaN, NaN, NaN, 0.03112983, "- N/A -   "
30.84, 1153.121, 0.0514921, NaN, NaN, NaN, 0.04089605, "- N/A -   "
30.98, 1158.61, 0.0517087, NaN, NaN, NaN, 0.0482207, "- N/A -   "
31.12, 1165.76, 0.0519752, NaN, NaN, NaN, 0.0335714, "- N/A -   "
31.26, 1172.32, 0.0522224, NaN, NaN, NaN, 0.0274675, "- N/A -   "
31.4, 1178.04, 0.05245007, NaN, NaN, NaN, 0.0299091, "- N/A -   "
31.54, 1183.05, 0.0526472, NaN, NaN, NaN, 0.04577916, "- N/A -   "
31.68, 1189.37, 0.05288324, NaN, NaN, NaN, 0.0445584, "- N/A -   "
31.82, 1196.29, 0.0531443, NaN, NaN, NaN, 0.0335714, "- N/A -   "
31.96, 1202.25, 0.0533747, NaN, NaN, NaN, 0.0335714, "- N/A -   "
32.1, 1208.22, 0.05360242, NaN, NaN, NaN, 0.0372337, "- N/A -   "
32.24, 1213.94, 0.053819, NaN, NaN, NaN, 0.0433376, "- N/A -   "
32.38, 1219.9, 0.05405503, NaN, NaN, NaN, 0.04211683, "- N/A -   "
32.52, 1227.06, 0.0543188, NaN, NaN, NaN, 0.0299091, "- N/A -   "
32.66, 1232.66, 0.0545382, NaN, NaN, NaN, 0.03601294, "- N/A -   "
32.8, 1239.22, 0.05477976, NaN, NaN, NaN, 0.0323506, "- N/A -   "
32.94, 1244.468, 0.054988, NaN, NaN, NaN, 0.04211683, "- N/A -   "
33.08, 1250.79, 0.0552296, NaN, NaN, NaN, 0.0396753, "- N/A -   "
33.22, 1257.228, 0.0554684, NaN, NaN, NaN, 0.0372337, "- N/A -   "
33.36, 1263.43, 0.0557072, NaN, NaN, NaN, 0.0347922, "- N/A -   "
33.5, 1269.51, 0.0559432, NaN, NaN, NaN, 0.0335714, "- N/A -   "
33.64, 1275.12, 0.0561598, NaN, NaN, NaN, 0.04089605, "- N/A -   "
33.78, 1281.08, 0.0563847, NaN, NaN, NaN, 0.0433376, "- N/A -   "
33.92, 1288, 0.0566485, NaN, NaN, NaN, 0.03112983, "- N/A -   "
34.06, 1294.2, 0.05688454, NaN, NaN, NaN, 0.0286883, "- N/A -   "
34.2, 1300.278, 0.0571122, NaN, NaN, NaN, 0.0323506, "- N/A -   "
34.34, 1305.17, 0.0573122, NaN, NaN, NaN, 0.04577916, "- N/A -   "
34.48, 1311.73, 0.0575565, NaN, NaN, NaN, 0.04089605, "- N/A -   "
34.62, 1318.17, 0.05780642, NaN, NaN, NaN, 0.0335714, "- N/A -   "
34.76, 1324.61, 0.0580508, NaN, NaN, NaN, 0.0299091, "- N/A -   "
34.9, 1329.97, 0.058259, NaN, NaN, NaN, 0.04089605, "- N/A -   "
35.04, 1335.93, 0.0584867, NaN, NaN, NaN, 0.04211683, "- N/A -   "
35.18, 1342.37, 0.0587339, NaN, NaN, NaN, 0.03601294, "- N/A -   "
35.32, 1349.17, 0.0589921, NaN, NaN, NaN, 0.0262467, "- N/A -   "
35.46, 1354.657, 0.0592031, NaN, NaN, NaN, 0.0372337, "- N/A -   "
35.6, 1360.74, 0.0594336, NaN, NaN, NaN, 0.0372337, "- N/A -   "
35.74, 1366.22, 0.05964463, NaN, NaN, NaN, 0.0482207, "- N/A -   "
35.88, 1373.26, 0.0599112, NaN, NaN, NaN, 0.0335714, "- N/A -   "
36.02, 1378.865, 0.0601278, NaN, NaN, NaN, 0.0396753, "- N/A -   "
36.16, 1385.424, 0.0603777, NaN, NaN, NaN, 0.0335714, "- N/A -   "
36.3, 1390.91, 0.0605915, NaN, NaN, NaN, 0.04089605, "- N/A -   "
36.44, 1397.23, 0.0608275, NaN, NaN, NaN, 0.04089605, "- N/A -   "
36.58, 1403.55, 0.0610691, NaN, NaN, NaN, 0.03601294, "- N/A -   "
36.72, 1409.87, 0.0613135, NaN, NaN, NaN, 0.03112983, "- N/A -   "
36.86, 1415.83, 0.0615384, NaN, NaN, NaN, 0.0347922, "- N/A -   "
37, 1421.68, 0.06176607, NaN, NaN, NaN, 0.0372337, "- N/A -   "
37.14, 1427.28, 0.06197988, NaN, NaN, NaN, 0.04577916, "- N/A -   "
37.28, 1434.08, 0.0622381, NaN, NaN, NaN, 0.03601294, "- N/A -   "
37.42, 1440.16, 0.0624714, NaN, NaN, NaN, 0.0347922, "- N/A -   "
37.56, 1446.48, 0.06271294, NaN, NaN, NaN, 0.0323506, "- N/A -   "
37.7, 1451.728, 0.0629212, NaN, NaN, NaN, 0.04211683, "- N/A -   "
37.796, 1455.544, 0.06307114, NaN, NaN, NaN, 0.04699994, "- N/A -   "