File: 2_Tensile_Data/Hamel_ForceTest_Bolt8_Test3.csv
Time, Load (lb), Position (in), AxialStrain (in), TransverseStrain (in), Auxiliary (), Control Out (V), Stress (psi)
0.0, 1.06153, 0.0, NaN, NaN, NaN, 0.100714, "- N/A -   "
0.01, 1.41537, 2.49908e-05, NaN, NaN, NaN, 0.101935, "- N/A -   "
0.02, 1.65126, 5.27583e-05, NaN, NaN, NaN, 0.0982726, "- N/A -   "
0.03, 2.005107, 7.774905E-5, NaN, NaN, NaN, 0.09338949, "- N/A -   "
0.04, 2.35895, 0.000105517, NaN, NaN, NaN, 0.08850638, "- N/A -   "
0.05, 2.59484, 0.000130507, NaN, NaN, NaN, 0.084844, "- N/A -   "
0.06, 2.94869, 1.554981E-4, NaN, NaN, NaN, 0.08118171, "- N/A -   "
0.07, 3.30253, 0.000183266, NaN, NaN, NaN, 0.0762986, "- N/A -   "
0.08, 3.65637, 0.000211033, NaN, NaN, NaN, 0.07263627, "- N/A -   "
0.09, 3.89227, 2.360239E-4, NaN, NaN, NaN, 0.0689739, "- N/A -   "
0.1, 4.246109, 0.000261015, NaN, NaN, NaN, 0.0640908, "- N/A -   "
0.11, 4.59995, 0.000288782, NaN, NaN, NaN, 0.0604285, "- N/A -   "
0.12, 4.953794, 3.109962E-4, NaN, NaN, NaN, 0.05676616, "- N/A -   "
0.13, 5.307636, 0.00033321, NaN, NaN, NaN, 0.0543246, "- N/A -   "
0.14, 5.54353, 0.000358201, NaN, NaN, NaN, 0.05188305, "- N/A -   "
0.15, 5.897373, 3.80415E-4, NaN, NaN, NaN, 0.0494415, "- N/A -   "
0.16, 6.13327, 0.000399852, NaN, NaN, NaN, 0.04699994, "- N/A -   "
0.17, 6.369163, 4.192895E-4, NaN, NaN, NaN, 0.04577916, "- N/A -   "
0.18, 6.60506, 0.00043595, NaN, NaN, NaN, 0.04577916, "- N/A -   "
0.19, 6.84095, 0.000452611, NaN, NaN, NaN, 0.04577916, "- N/A -   "
0.2, 7.07685, 4.720478E-4, NaN, NaN, NaN, 0.0445584, "- N/A -   "
0.21, 7.312743, 0.000491485, NaN, NaN, NaN, 0.0433376, "- N/A -   "
0.22, 7.666586, 5.136991E-4, NaN, NaN, NaN, 0.04211683, "- N/A -   "
0.23, 7.90248, 0.000533136, NaN, NaN, NaN, 0.0396753, "- N/A -   "
0.24, 8.138375, 5.553504E-4, NaN, NaN, NaN, 0.0384545, "- N/A -   "
0.25, 8.492218, 5.747876E-4, NaN, NaN, NaN, 0.03601294, "- N/A -   "
0.26, 8.728113, 5.942249E-4, NaN, NaN, NaN, 0.0347922, "- N/A -   "
0.27, 8.964007, 6.136621E-4, NaN, NaN, NaN, 0.0347922, "- N/A -   "
0.28, 9.31785, 0.000630323, NaN, NaN, NaN, 0.0335714, "- N/A -   "
0.29, 9.553744, 6.497599E-4, NaN, NaN, NaN, 0.0323506, "- N/A -   "
0.3, 9.78964, 6.691972E-4, NaN, NaN, NaN, 0.0323506, "- N/A -   "
0.31, 10.0255, 6.858577E-4, NaN, NaN, NaN, 0.03112983, "- N/A -   "
0.32, 10.26143, 0.000705295, NaN, NaN, NaN, 0.03112983, "- N/A -   "
0.33, 10.6153, 7.219555E-4, NaN, NaN, NaN, 0.0299091, "- N/A -   "
0.34, 10.73322, 0.000735839, NaN, NaN, NaN, 0.03112983, "- N/A -   "
0.35, 10.9691, 0.0007525, NaN, NaN, NaN, 0.03112983, "- N/A -   "
0.36, 11.205, 7.71937E-4, NaN, NaN, NaN, 0.03112983, "- N/A -   "
0.37, 11.4409, 0.000785821, NaN, NaN, NaN, 0.03112983, "- N/A -   "
0.38, 11.6768, 0.000802481, NaN, NaN, NaN, 0.0323506, "- N/A -   "
0.39, 11.7947, 8.16365E-4, NaN, NaN, NaN, 0.0323506, "- N/A -   "
0.4, 12.0306, 8.358023E-4, NaN, NaN, NaN, 0.0323506, "- N/A -   "
0.41, 12.2665, 0.000849686, NaN, NaN, NaN, 0.0323506, "- N/A -   "
0.46, 13.2101, 9.218816E-4, NaN, NaN, NaN, 0.0372337, "- N/A -   "
0.51, 14.1537, 9.968539E-4, NaN, NaN, NaN, 0.04211683, "- N/A -   "
0.56, 15.3332, 0.00106905, NaN, NaN, NaN, 0.04577916, "- N/A -   "
0.61, 16.74854, 0.00115791, NaN, NaN, NaN, 0.0433376, "- N/A -   "
0.66, 17.928, 0.00123843, NaN, NaN, NaN, 0.0445584, "- N/A -   "
0.71, 19.2254, 0.00132173, NaN, NaN, NaN, 0.0445584, "- N/A -   "
0.76, 20.7588, 0.00141337, NaN, NaN, NaN, 0.04089605, "- N/A -   "
0.81, 22.29207, 0.00151611, NaN, NaN, NaN, 0.0323506, "- N/A -   "
0.86, 23.82539, 0.00160774, NaN, NaN, NaN, 0.0299091, "- N/A -   "
0.91, 25.1228, 0.00168827, NaN, NaN, NaN, 0.0299091, "- N/A -   "
0.96, 26.4202, 0.00176601, NaN, NaN, NaN, 0.0323506, "- N/A -   "
1.01, 27.7177, 0.00184376, NaN, NaN, NaN, 0.03601294, "- N/A -   "
1.06, 29.133, 0.00192151, NaN, NaN, NaN, 0.0372337, "- N/A -   "
1.11, 30.5484, 0.00200481, NaN, NaN, NaN, 0.0372337, "- N/A -   "
1.16, 31.9638, 0.00208812, NaN, NaN, NaN, 0.0372337, "- N/A -   "
1.21, 33.2612, 0.00216309, NaN, NaN, NaN, 0.04089605, "- N/A -   "
1.26, 34.55861, 0.00223529, NaN, NaN, NaN, 0.04577916, "- N/A -   "
1.31, 35.97398, 0.002326918, NaN, NaN, NaN, 0.0433376, "- N/A -   "
1.36, 37.5073, 0.00240744, NaN, NaN, NaN, 0.0433376, "- N/A -   "
1.41, 39.15856, 0.00250185, NaN, NaN, NaN, 0.0396753, "- N/A -   "
1.46, 40.9278, 0.00260182, NaN, NaN, NaN, 0.0323506, "- N/A -   "
1.51, 42.579, 0.00269345, NaN, NaN, NaN, 0.0286883, "- N/A -   "
1.56, 43.75851, 0.00276564, NaN, NaN, NaN, 0.0323506, "- N/A -   "
1.61, 45.17388, 0.002843394, NaN, NaN, NaN, 0.0347922, "- N/A -   "
1.66, 46.7072, 0.0029267, NaN, NaN, NaN, 0.03601294, "- N/A -   "
1.71, 48.3585, 0.003012776, NaN, NaN, NaN, 0.0335714, "- N/A -   "
1.76, 49.8918, 0.003101632, NaN, NaN, NaN, 0.0323506, "- N/A -   "
1.81, 51.1892, 0.0031766, NaN, NaN, NaN, 0.03601294, "- N/A -   "
1.86, 52.36868, 0.003246023, NaN, NaN, NaN, 0.04089605, "- N/A -   "
1.91, 53.784, 0.003323772, NaN, NaN, NaN, 0.0433376, "- N/A -   "
1.96, 55.3174, 0.003409851, NaN, NaN, NaN, 0.0433376, "- N/A -   "
2.01, 56.9686, 0.00349871, NaN, NaN, NaN, 0.0396753, "- N/A -   "
2.06, 58.5019, 0.00358201, NaN, NaN, NaN, 0.0396753, "- N/A -   "
2.11, 60.27116, 0.00367087, NaN, NaN, NaN, 0.0372337, "- N/A -   "
2.16, 61.8045, 0.00375972, NaN, NaN, NaN, 0.03601294, "- N/A -   "
2.21, 63.33779, 0.00384025, NaN, NaN, NaN, 0.03601294, "- N/A -   "
2.26, 65.22495, 0.00393466, NaN, NaN, NaN, 0.0323506, "- N/A -   "
2.31, 66.64032, 0.00401796, NaN, NaN, NaN, 0.03112983, "- N/A -   "
2.36, 67.9377, 0.00409293, NaN, NaN, NaN, 0.0347922, "- N/A -   "
2.41, 69.589, 0.004176235, NaN, NaN, NaN, 0.0347922, "- N/A -   "
2.46, 71.12233, 0.00425954, NaN, NaN, NaN, 0.0347922, "- N/A -   "
2.51, 72.77359, 0.004345617, NaN, NaN, NaN, 0.0347922, "- N/A -   "
2.56, 74.189, 0.004428919, NaN, NaN, NaN, 0.0335714, "- N/A -   "
2.61, 75.6043, 0.00450111, NaN, NaN, NaN, 0.0384545, "- N/A -   "
2.66, 77.13765, 0.004581641, NaN, NaN, NaN, 0.04089605, "- N/A -   "
2.71, 78.67096, 0.00466217, NaN, NaN, NaN, 0.04089605, "- N/A -   "
2.76, 80.20428, 0.004742692, NaN, NaN, NaN, 0.0433376, "- N/A -   "
2.81, 81.97349, 0.004828772, NaN, NaN, NaN, 0.04089605, "- N/A -   "
2.86, 84.09654, 0.00493151, NaN, NaN, NaN, 0.0335714, "- N/A -   "
2.91, 85.74781, 0.005014814, NaN, NaN, NaN, 0.0323506, "- N/A -   "
2.96, 87.39908, 0.005098116, NaN, NaN, NaN, 0.0323506, "- N/A -   "
3.01, 88.9324, 0.00517864, NaN, NaN, NaN, 0.0347922, "- N/A -   "
3.06, 90.81956, 0.00527028, NaN, NaN, NaN, 0.03112983, "- N/A -   "
3.11, 92.94261, 0.005361908, NaN, NaN, NaN, 0.0274675, "- N/A -   "
3.16, 94.35797, 0.00543688, NaN, NaN, NaN, 0.0299091, "- N/A -   "
3.21, 95.8913, 0.00551185, NaN, NaN, NaN, 0.0335714, "- N/A -   "
3.26, 97.30666, 0.005584048, NaN, NaN, NaN, 0.0396753, "- N/A -   "
3.31, 98.9579, 0.005656244, NaN, NaN, NaN, 0.0433376, "- N/A -   "
3.36, 100.727, 0.00573399, NaN, NaN, NaN, 0.04577916, "- N/A -   "
3.41, 102.6143, 0.005820072, NaN, NaN, NaN, 0.0445584, "- N/A -   "
3.46, 104.619, 0.005908928, NaN, NaN, NaN, 0.04211683, "- N/A -   "
3.51, 106.625, 0.00600611, NaN, NaN, NaN, 0.0384545, "- N/A -   "
3.56, 108.512, 0.00609497, NaN, NaN, NaN, 0.03601294, "- N/A -   "
3.61, 110.399, 0.00618105, NaN, NaN, NaN, 0.0335714, "- N/A -   "
3.66, 112.404, 0.00626991, NaN, NaN, NaN, 0.03112983, "- N/A -   "
3.71, 114.409, 0.006358762, NaN, NaN, NaN, 0.0286883, "- N/A -   "
3.76, 116.06, 0.00643929, NaN, NaN, NaN, 0.0299091, "- N/A -   "
3.81, 117.712, 0.00651426, NaN, NaN, NaN, 0.0335714, "- N/A -   "
3.86, 119.363, 0.006589232, NaN, NaN, NaN, 0.0372337, "- N/A -   "
3.91, 121.132, 0.006666981, NaN, NaN, NaN, 0.0396753, "- N/A -   "
3.96, 122.783, 0.006741954, NaN, NaN, NaN, 0.0433376, "- N/A -   "
4.01, 124.67, 0.006828033, NaN, NaN, NaN, 0.04211683, "- N/A -   "
4.06, 126.44, 0.00690856, NaN, NaN, NaN, 0.0445584, "- N/A -   "
4.11, 128.4448, 0.00699186, NaN, NaN, NaN, 0.0433376, "- N/A -   "
4.16, 130.332, 0.00707794, NaN, NaN, NaN, 0.0433376, "- N/A -   "
4.21, 132.455, 0.00717235, NaN, NaN, NaN, 0.0372337, "- N/A -   "
4.26, 134.696, 0.00726954, NaN, NaN, NaN, 0.03112983, "- N/A -   "
4.31, 136.701, 0.00735839, NaN, NaN, NaN, 0.0286883, "- N/A -   "
4.36, 138.352, 0.007436142, NaN, NaN, NaN, 0.03112983, "- N/A -   "
4.41, 140.1216, 0.00751667, NaN, NaN, NaN, 0.0335714, "- N/A -   "
4.46, 142.009, 0.00759997, NaN, NaN, NaN, 0.0323506, "- N/A -   "
4.51, 143.778, 0.0076805, NaN, NaN, NaN, 0.0335714, "- N/A -   "
4.56, 145.547, 0.007758245, NaN, NaN, NaN, 0.0372337, "- N/A -   "
4.61, 147.316, 0.007835994, NaN, NaN, NaN, 0.0384545, "- N/A -   "
4.66, 148.8497, 0.007913743, NaN, NaN, NaN, 0.04211683, "- N/A -   "
4.71, 150.619, 0.007988716, NaN, NaN, NaN, 0.0445584, "- N/A -   "
4.76, 152.506, 0.008072018, NaN, NaN, NaN, 0.0445584, "- N/A -   "
4.81, 154.511, 0.00816365, NaN, NaN, NaN, 0.04089605, "- N/A -   "
4.86, 156.398, 0.008252507, NaN, NaN, NaN, 0.0396753, "- N/A -   "
4.91, 158.639, 0.008346916, NaN, NaN, NaN, 0.0335714, "- N/A -   "
4.96, 160.409, 0.008438549, NaN, NaN, NaN, 0.03112983, "- N/A -   "
5.01, 161.942, 0.008510744, NaN, NaN, NaN, 0.0347922, "- N/A -   "
5.06, 163.711, 0.00859127, NaN, NaN, NaN, 0.03601294, "- N/A -   "
5.11, 165.7162, 0.008682903, NaN, NaN, NaN, 0.0335714, "- N/A -   "
5.16, 167.603, 0.008768982, NaN, NaN, NaN, 0.0323506, "- N/A -   "
5.21, 169.137, 0.008841178, NaN, NaN, NaN, 0.03601294, "- N/A -   "
5.26, 170.788, 0.008921703, NaN, NaN, NaN, 0.0372337, "- N/A -   "
5.31, 172.321, 0.008993899, NaN, NaN, NaN, 0.04211683, "- N/A -   "
5.36, 174.208, 0.009079979, NaN, NaN, NaN, 0.04089605, "- N/A -   "
5.41, 175.86, 0.009166058, NaN, NaN, NaN, 0.0396753, "- N/A -   "
5.46, 177.747, 0.00925214, NaN, NaN, NaN, 0.0384545, "- N/A -   "
5.51, 179.634, 0.009340994, NaN, NaN, NaN, 0.03601294, "- N/A -   "
5.56, 181.167, 0.009418743, NaN, NaN, NaN, 0.0384545, "- N/A -   "
5.61, 183.054, 0.009507598, NaN, NaN, NaN, 0.0372337, "- N/A -   "
5.66, 184.824, 0.009590901, NaN, NaN, NaN, 0.03601294, "- N/A -   "
5.71, 186.593, 0.009685311, NaN, NaN, NaN, 0.03112983, "- N/A -   "
5.76, 188.244, 0.009768614, NaN, NaN, NaN, 0.0323506, "- N/A -   "
5.81, 189.895, 0.009849139, NaN, NaN, NaN, 0.0323506, "- N/A -   "
5.86, 191.547, 0.009932442, NaN, NaN, NaN, 0.0323506, "- N/A -   "
5.91, 193.3159, 0.0100157, NaN, NaN, NaN, 0.0323506, "- N/A -   "
5.96, 194.849, 0.010099, NaN, NaN, NaN, 0.0323506, "- N/A -   "
6.01, 196.265, 0.0101685, NaN, NaN, NaN, 0.0384545, "- N/A -   "
6.06, 197.798, 0.0102434, NaN, NaN, NaN, 0.04211683, "- N/A -   "
6.11, 199.331, 0.0103212, NaN, NaN, NaN, 0.0445584, "- N/A -   "
6.16, 200.9825, 0.0104045, NaN, NaN, NaN, 0.0445584, "- N/A -   "
6.21, 202.516, 0.0104906, NaN, NaN, NaN, 0.0433376, "- N/A -   "
6.26, 204.403, 0.0105822, NaN, NaN, NaN, 0.0396753, "- N/A -   "
6.31, 206.408, 0.0106822, NaN, NaN, NaN, 0.0323506, "- N/A -   "
6.36, 207.941, 0.0107655, NaN, NaN, NaN, 0.0323506, "- N/A -   "
6.41, 209.593, 0.0108488, NaN, NaN, NaN, 0.0335714, "- N/A -   "
6.46, 211.244, 0.0109321, NaN, NaN, NaN, 0.0323506, "- N/A -   "
6.51, 212.777, 0.0110209, NaN, NaN, NaN, 0.0299091, "- N/A -   "
6.56, 214.546, 0.011107, NaN, NaN, NaN, 0.0286883, "- N/A -   "
6.61, 215.844, 0.011182, NaN, NaN, NaN, 0.0335714, "- N/A -   "
6.66, 217.259, 0.0112542, NaN, NaN, NaN, 0.0372337, "- N/A -   "
6.71, 218.557, 0.0113264, NaN, NaN, NaN, 0.04211683, "- N/A -   "
6.76, 220.09, 0.0114013, NaN, NaN, NaN, 0.04577916, "- N/A -   "
6.81, 221.623, 0.0114846, NaN, NaN, NaN, 0.04699994, "- N/A -   "
6.86, 223.746, 0.0115818, NaN, NaN, NaN, 0.0396753, "- N/A -   "
6.91, 225.6335, 0.0116735, NaN, NaN, NaN, 0.03601294, "- N/A -   "
6.96, 227.167, 0.0117568, NaN, NaN, NaN, 0.0372337, "- N/A -   "
7.01, 228.818, 0.01184007, NaN, NaN, NaN, 0.03601294, "- N/A -   "
7.06, 230.705, 0.01194, NaN, NaN, NaN, 0.0299091, "- N/A -   "
7.11, 232.357, 0.0120233, NaN, NaN, NaN, 0.0286883, "- N/A -   "
7.12, 232.71, 0.01204, NaN, NaN, NaN, 0.0286883, "- N/A -   "
7.13, 233.0642, 0.0120567, NaN, NaN, NaN, 0.0286883, "- N/A -   "
7.14, 233.418, 0.0120733, NaN, NaN, NaN, 0.0286883, "- N/A -   "
7.15, 233.772, 0.01209, NaN, NaN, NaN, 0.0286883, "- N/A -   "
7.16, 234.008, 0.0121066, NaN, NaN, NaN, 0.0286883, "- N/A -   "
7.17, 234.362, 0.0121233, NaN, NaN, NaN, 0.0286883, "- N/A -   "
7.18, 234.598, 0.01214, NaN, NaN, NaN, 0.0286883, "- N/A -   "
7.19, 235.0693, 0.0121594, NaN, NaN, NaN, 0.0274675, "- N/A -   "
7.2, 235.423, 0.01217328, NaN, NaN, NaN, 0.0286883, "- N/A -   "
7.21, 235.659, 0.0121927, NaN, NaN, NaN, 0.0274675, "- N/A -   "
7.22, 236.0129, 0.0122066, NaN, NaN, NaN, 0.0286883, "- N/A -   "
7.23, 236.367, 0.0122233, NaN, NaN, NaN, 0.0299091, "- N/A -   "
7.24, 236.721, 0.0122371, NaN, NaN, NaN, 0.03112983, "- N/A -   "
7.25, 236.839, 0.01225103, NaN, NaN, NaN, 0.03112983, "- N/A -   "
7.26, 237.192, 0.0122649, NaN, NaN, NaN, 0.0323506, "- N/A -   "
7.27, 237.428, 0.0122788, NaN, NaN, NaN, 0.0335714, "- N/A -   "
7.28, 237.664, 0.0122955, NaN, NaN, NaN, 0.0347922, "- N/A -   "
7.29, 237.9, 0.0123093, NaN, NaN, NaN, 0.0347922, "- N/A -   "
7.3, 238.254, 0.0123232, NaN, NaN, NaN, 0.03601294, "- N/A -   "
7.31, 238.372, 0.0123371, NaN, NaN, NaN, 0.0372337, "- N/A -   "
7.32, 238.726, 0.012351, NaN, NaN, NaN, 0.0384545, "- N/A -   "
7.33, 238.962, 0.0123649, NaN, NaN, NaN, 0.04089605, "- N/A -   "
7.34, 239.197, 0.01237876, NaN, NaN, NaN, 0.04089605, "- N/A -   "
7.35, 239.551, 0.01239542, NaN, NaN, NaN, 0.04211683, "- N/A -   "
7.36, 240.0231, 0.0124121, NaN, NaN, NaN, 0.04211683, "- N/A -   "
7.37, 240.141, 0.012426, NaN, NaN, NaN, 0.04211683, "- N/A -   "
7.38, 240.495, 0.0124426, NaN, NaN, NaN, 0.0433376, "- N/A -   "
7.39, 240.849, 0.0124593, NaN, NaN, NaN, 0.0433376, "- N/A -   "
7.4, 241.085, 0.01247317, NaN, NaN, NaN, 0.0433376, "- N/A -   "
7.41, 241.556, 0.0124926, NaN, NaN, NaN, 0.0433376, "- N/A -   "
7.42, 241.91, 0.0125093, NaN, NaN, NaN, 0.04211683, "- N/A -   "
7.43, 242.2641, 0.0125259, NaN, NaN, NaN, 0.04211683, "- N/A -   "
7.44, 242.618, 0.0125426, NaN, NaN, NaN, 0.04211683, "- N/A -   "
7.45, 242.853, 0.0125592, NaN, NaN, NaN, 0.0433376, "- N/A -   "
7.46, 243.207, 0.0125731, NaN, NaN, NaN, 0.0433376, "- N/A -   "
7.47, 243.443, 0.0125898, NaN, NaN, NaN, 0.0433376, "- N/A -   "
7.48, 243.7961, 0.0126065, NaN, NaN, NaN, 0.0445584, "- N/A -   "
7.49, 244.15, 0.0126231, NaN, NaN, NaN, 0.0433376, "- N/A -   "
7.5, 244.385, 0.0126398, NaN, NaN, NaN, 0.0445584, "- N/A -   "
7.51, 244.7387, 0.0126564, NaN, NaN, NaN, 0.0445584, "- N/A -   "
7.52, 245.092, 0.0126731, NaN, NaN, NaN, 0.0445584, "- N/A -   "
7.53, 245.446, 0.0126898, NaN, NaN, NaN, 0.0433376, "- N/A -   "
7.54, 245.799, 0.0127064, NaN, NaN, NaN, 0.0433376, "- N/A -   "
7.55, 246.153, 0.0127231, NaN, NaN, NaN, 0.0433376, "- N/A -   "
7.56, 246.506, 0.0127425, NaN, NaN, NaN, 0.04211683, "- N/A -   "
7.57, 246.86, 0.012762, NaN, NaN, NaN, 0.04089605, "- N/A -   "
7.58, 247.331, 0.0127814, NaN, NaN, NaN, 0.0396753, "- N/A -   "
7.59, 247.684, 0.0128008, NaN, NaN, NaN, 0.0396753, "- N/A -   "
7.6, 248.156, 0.0128175, NaN, NaN, NaN, 0.0384545, "- N/A -   "
7.61, 248.509, 0.0128397, NaN, NaN, NaN, 0.0372337, "- N/A -   "
7.62, 248.863, 0.0128591, NaN, NaN, NaN, 0.03601294, "- N/A -   "
7.63, 249.216, 0.0128786, NaN, NaN, NaN, 0.0347922, "- N/A -   "
7.64, 249.6874, 0.012898, NaN, NaN, NaN, 0.0335714, "- N/A -   "
7.65, 250.041, 0.0129147, NaN, NaN, NaN, 0.0323506, "- N/A -   "
7.66, 250.512, 0.0129369, NaN, NaN, NaN, 0.03112983, "- N/A -   "
7.67, 250.866, 0.0129535, NaN, NaN, NaN, 0.0299091, "- N/A -   "
7.68, 251.219, 0.012973, NaN, NaN, NaN, 0.0286883, "- N/A -   "
7.69, 251.5726, 0.0129896, NaN, NaN, NaN, 0.0286883, "- N/A -   "
7.7, 251.926, 0.0130063, NaN, NaN, NaN, 0.0286883, "- N/A -   "
7.71, 252.162, 0.013023, NaN, NaN, NaN, 0.0286883, "- N/A -   "
7.72, 252.515, 0.0130396, NaN, NaN, NaN, 0.0286883, "- N/A -   "
7.73, 252.8687, 0.0130591, NaN, NaN, NaN, 0.0286883, "- N/A -   "
7.74, 253.222, 0.0130757, NaN, NaN, NaN, 0.0286883, "- N/A -   "
7.75, 253.576, 0.0130896, NaN, NaN, NaN, 0.0286883, "- N/A -   "
7.76, 253.811, 0.0131063, NaN, NaN, NaN, 0.0286883, "- N/A -   "
7.77, 254.283, 0.01312293, NaN, NaN, NaN, 0.0286883, "- N/A -   "
7.78, 254.518, 0.01313959, NaN, NaN, NaN, 0.0299091, "- N/A -   "
7.79, 254.7539, 0.0131507, NaN, NaN, NaN, 0.03112983, "- N/A -   "
7.8, 255.1074, 0.0131674, NaN, NaN, NaN, 0.03112983, "- N/A -   "
7.81, 255.343, 0.013184, NaN, NaN, NaN, 0.0323506, "- N/A -   "
7.82, 255.697, 0.0131979, NaN, NaN, NaN, 0.0323506, "- N/A -   "
7.83, 255.932, 0.0132118, NaN, NaN, NaN, 0.0335714, "- N/A -   "
7.84, 256.286, 0.0132284, NaN, NaN, NaN, 0.0347922, "- N/A -   "
7.85, 256.639, 0.01324233, NaN, NaN, NaN, 0.0347922, "- N/A -   "
7.86, 256.8748, 0.01325899, NaN, NaN, NaN, 0.0347922, "- N/A -   "
7.87, 257.228, 0.0132729, NaN, NaN, NaN, 0.03601294, "- N/A -   "
7.88, 257.582, 0.0132895, NaN, NaN, NaN, 0.03601294, "- N/A -   "
7.89, 257.817, 0.0133034, NaN, NaN, NaN, 0.0372337, "- N/A -   "
7.9, 258.171, 0.0133229, NaN, NaN, NaN, 0.03601294, "- N/A -   "
7.91, 258.524, 0.0133395, NaN, NaN, NaN, 0.03601294, "- N/A -   "
7.92, 258.996, 0.0133562, NaN, NaN, NaN, 0.03601294, "- N/A -   "
7.93, 259.231, 0.0133728, NaN, NaN, NaN, 0.03601294, "- N/A -   "
7.94, 259.585, 0.0133895, NaN, NaN, NaN, 0.0372337, "- N/A -   "
[...]
28.51, 1096.36, 0.0476657, NaN, NaN, NaN, 0.0396753, "- N/A -   "
28.61, 1100.77, 0.0478323, NaN, NaN, NaN, 0.0396753, "- N/A -   "
28.71, 1105.78, 0.0480211, NaN, NaN, NaN, 0.0299091, "- N/A -   "
28.81, 1110.07, 0.0481822, NaN, NaN, NaN, 0.0323506, "- N/A -   "
28.91, 1114.01, 0.04833214, NaN, NaN, NaN, 0.0396753, "- N/A -   "
29.01, 1118.538, 0.0485015, NaN, NaN, NaN, 0.0384545, "- N/A -   "
29.11, 1123.67, 0.0486876, NaN, NaN, NaN, 0.0299091, "- N/A -   "
29.21, 1127.36, 0.04883196, NaN, NaN, NaN, 0.0396753, "- N/A -   "
29.31, 1131.775, 0.0489958, NaN, NaN, NaN, 0.04211683, "- N/A -   "
29.41, 1136.43, 0.0491679, NaN, NaN, NaN, 0.0384545, "- N/A -   "
29.51, 1140.96, 0.0493373, NaN, NaN, NaN, 0.0372337, "- N/A -   "
29.61, 1145.61, 0.0495123, NaN, NaN, NaN, 0.0335714, "- N/A -   "
29.71, 1150.02, 0.0496789, NaN, NaN, NaN, 0.0347922, "- N/A -   "
29.81, 1154.31, 0.0498455, NaN, NaN, NaN, 0.0347922, "- N/A -   "
29.91, 1158.49, 0.05000097, NaN, NaN, NaN, 0.0384545, "- N/A -   "
30.01, 1162.66, 0.0501592, NaN, NaN, NaN, 0.04211683, "- N/A -   "
30.11, 1167.55, 0.050337, NaN, NaN, NaN, 0.0384545, "- N/A -   "
30.21, 1172.32, 0.0505174, NaN, NaN, NaN, 0.03112983, "- N/A -   "
30.31, 1176.61, 0.0506785, NaN, NaN, NaN, 0.0347922, "- N/A -   "
30.41, 1181.38, 0.050859, NaN, NaN, NaN, 0.0274675, "- N/A -   "
30.51, 1185.56, 0.0510145, NaN, NaN, NaN, 0.0323506, "- N/A -   "
30.61, 1189.016, 0.05115332, NaN, NaN, NaN, 0.04577916, "- N/A -   "
30.71, 1193.43, 0.0513171, NaN, NaN, NaN, 0.04699994, "- N/A -   "
30.81, 1198.44, 0.0515032, NaN, NaN, NaN, 0.0384545, "- N/A -   "
30.91, 1203.326, 0.0516809, NaN, NaN, NaN, 0.0335714, "- N/A -   "
30.99, 1207.14, 0.0518253, NaN, NaN, NaN, 0.0299091, "- N/A -   "
31, 1207.5, 0.051842, NaN, NaN, NaN, 0.0286883, "- N/A -   "
31.01, 1207.977, 0.05185584, NaN, NaN, NaN, 0.0299091, "- N/A -   "
31.04, 1209.29, 0.0519058, NaN, NaN, NaN, 0.0299091, "- N/A -   "
31.07, 1210.72, 0.05195858, NaN, NaN, NaN, 0.0286883, "- N/A -   "
31.1, 1211.91, 0.0520058, NaN, NaN, NaN, 0.03112983, "- N/A -   "
31.13, 1213.1, 0.05205021, NaN, NaN, NaN, 0.0323506, "- N/A -   "
31.16, 1214.178, 0.0520919, NaN, NaN, NaN, 0.03601294, "- N/A -   "
31.19, 1215.13, 0.0521307, NaN, NaN, NaN, 0.04089605, "- N/A -   "
31.22, 1216.21, 0.0521752, NaN, NaN, NaN, 0.0433376, "- N/A -   "
31.25, 1217.52, 0.05222237, NaN, NaN, NaN, 0.04577916, "- N/A -   "
31.28, 1218.829, 0.0522696, NaN, NaN, NaN, 0.04577916, "- N/A -   "
31.31, 1220.26, 0.0523251, NaN, NaN, NaN, 0.0445584, "- N/A -   "
31.34, 1221.57, 0.0523751, NaN, NaN, NaN, 0.0445584, "- N/A -   "
31.37, 1223, 0.05242785, NaN, NaN, NaN, 0.04211683, "- N/A -   "
31.4, 1224.43, 0.05248061, NaN, NaN, NaN, 0.04089605, "- N/A -   "
31.43, 1225.75, 0.05253059, NaN, NaN, NaN, 0.04089605, "- N/A -   "
31.46, 1227.18, 0.0525861, NaN, NaN, NaN, 0.0396753, "- N/A -   "
31.49, 1228.73, 0.05264166, NaN, NaN, NaN, 0.03601294, "- N/A -   "
31.52, 1230.52, 0.0527027, NaN, NaN, NaN, 0.0323506, "- N/A -   "
31.55, 1231.95, 0.0527583, NaN, NaN, NaN, 0.0286883, "- N/A -   "
31.58, 1233.26, 0.0528083, NaN, NaN, NaN, 0.0286883, "- N/A -   "
31.61, 1234.69, 0.052861, NaN, NaN, NaN, 0.0286883, "- N/A -   "
31.64, 1236, 0.05290823, NaN, NaN, NaN, 0.0299091, "- N/A -   "
31.67, 1237.19, 0.0529527, NaN, NaN, NaN, 0.03112983, "- N/A -   "
31.7, 1238.39, 0.0529999, NaN, NaN, NaN, 0.0335714, "- N/A -   "
31.73, 1239.698, 0.05304707, NaN, NaN, NaN, 0.0335714, "- N/A -   "
31.76, 1241.01, 0.053097, NaN, NaN, NaN, 0.0335714, "- N/A -   "
31.79, 1242.2, 0.05314425, NaN, NaN, NaN, 0.0347922, "- N/A -   "
31.82, 1243.514, 0.0531942, NaN, NaN, NaN, 0.03601294, "- N/A -   "
31.85, 1244.83, 0.05324422, NaN, NaN, NaN, 0.03601294, "- N/A -   "
31.88, 1246.14, 0.05329142, NaN, NaN, NaN, 0.03601294, "- N/A -   "
31.91, 1247.33, 0.0533414, NaN, NaN, NaN, 0.03601294, "- N/A -   "
31.94, 1248.4, 0.0533831, NaN, NaN, NaN, 0.04089605, "- N/A -   "
31.97, 1249.6, 0.05342748, NaN, NaN, NaN, 0.04211683, "- N/A -   "
32, 1250.79, 0.0534719, NaN, NaN, NaN, 0.04577916, "- N/A -   "
32.03, 1251.981, 0.0535163, NaN, NaN, NaN, 0.0482207, "- N/A -   "
32.06, 1253.29, 0.05356632, NaN, NaN, NaN, 0.0482207, "- N/A -   "
32.09, 1254.843, 0.05362463, NaN, NaN, NaN, 0.0445584, "- N/A -   "
32.12, 1256.63, 0.05368572, NaN, NaN, NaN, 0.0384545, "- N/A -   "
32.15, 1258.18, 0.053744, NaN, NaN, NaN, 0.0347922, "- N/A -   "
32.18, 1259.73, 0.05379679, NaN, NaN, NaN, 0.0335714, "- N/A -   "
32.21, 1261.16, 0.0538495, NaN, NaN, NaN, 0.0323506, "- N/A -   "
32.24, 1262.36, 0.05389953, NaN, NaN, NaN, 0.0323506, "- N/A -   "
32.27, 1263.55, 0.053944, NaN, NaN, NaN, 0.0347922, "- N/A -   "
32.3, 1264.741, 0.05399116, NaN, NaN, NaN, 0.03601294, "- N/A -   "
32.33, 1266.05, 0.0540411, NaN, NaN, NaN, 0.03601294, "- N/A -   "
32.36, 1267.48, 0.0540911, NaN, NaN, NaN, 0.03601294, "- N/A -   "
32.39, 1268.68, 0.0541439, NaN, NaN, NaN, 0.03601294, "- N/A -   "
32.42, 1270.35, 0.0541994, NaN, NaN, NaN, 0.0335714, "- N/A -   "
32.45, 1271.78, 0.0542522, NaN, NaN, NaN, 0.03112983, "- N/A -   "
32.48, 1273.09, 0.05429938, NaN, NaN, NaN, 0.0323506, "- N/A -   "
32.51, 1274.281, 0.0543466, NaN, NaN, NaN, 0.0347922, "- N/A -   "
32.54, 1275.47, 0.05439379, NaN, NaN, NaN, 0.0347922, "- N/A -   "
32.57, 1276.55, 0.0544354, NaN, NaN, NaN, 0.0384545, "- N/A -   "
32.6, 1277.74, 0.0544771, NaN, NaN, NaN, 0.0433376, "- N/A -   "
32.63, 1278.81, 0.0545271, NaN, NaN, NaN, 0.0433376, "- N/A -   "
32.66, 1280.36, 0.0545826, NaN, NaN, NaN, 0.04089605, "- N/A -   "
32.69, 1281.794, 0.0546354, NaN, NaN, NaN, 0.0396753, "- N/A -   "
32.72, 1283.11, 0.0546826, NaN, NaN, NaN, 0.0396753, "- N/A -   "
32.75, 1284.54, 0.0547326, NaN, NaN, NaN, 0.0396753, "- N/A -   "
32.78, 1285.97, 0.05478809, NaN, NaN, NaN, 0.0372337, "- N/A -   "
32.81, 1287.4, 0.0548408, NaN, NaN, NaN, 0.03601294, "- N/A -   "
32.84, 1288.71, 0.05489083, NaN, NaN, NaN, 0.0372337, "- N/A -   "
32.87, 1289.903, 0.054938, NaN, NaN, NaN, 0.0372337, "- N/A -   "
32.9, 1291.21, 0.054988, NaN, NaN, NaN, 0.0372337, "- N/A -   "
32.93, 1292.65, 0.0550408, NaN, NaN, NaN, 0.03601294, "- N/A -   "
32.96, 1294.08, 0.0550935, NaN, NaN, NaN, 0.0347922, "- N/A -   "
32.99, 1295.63, 0.0551491, NaN, NaN, NaN, 0.0323506, "- N/A -   "
33.02, 1297.06, 0.05520183, NaN, NaN, NaN, 0.03112983, "- N/A -   "
33.05, 1298.49, 0.0552518, NaN, NaN, NaN, 0.03112983, "- N/A -   "
33.08, 1299.68, 0.05530179, NaN, NaN, NaN, 0.03112983, "- N/A -   "
33.11, 1300.99, 0.0553518, NaN, NaN, NaN, 0.03112983, "- N/A -   "
33.14, 1302.42, 0.05539897, NaN, NaN, NaN, 0.0323506, "- N/A -   "
33.17, 1303.62, 0.055449, NaN, NaN, NaN, 0.0335714, "- N/A -   "
33.2, 1304.93, 0.05549894, NaN, NaN, NaN, 0.0335714, "- N/A -   "
33.23, 1306.12, 0.0555489, NaN, NaN, NaN, 0.0323506, "- N/A -   "
33.26, 1307.43, 0.05559612, NaN, NaN, NaN, 0.0335714, "- N/A -   "
33.29, 1308.51, 0.0556378, NaN, NaN, NaN, 0.0372337, "- N/A -   "
33.32, 1309.82, 0.05568498, NaN, NaN, NaN, 0.0396753, "- N/A -   "
33.35, 1311.01, 0.0557322, NaN, NaN, NaN, 0.0396753, "- N/A -   "
33.38, 1312.084, 0.0557738, NaN, NaN, NaN, 0.0433376, "- N/A -   "
33.41, 1313.16, 0.0558155, NaN, NaN, NaN, 0.04699994, "- N/A -   "
33.44, 1314.35, 0.05586269, NaN, NaN, NaN, 0.0482207, "- N/A -   "
33.47, 1315.9, 0.0559182, NaN, NaN, NaN, 0.04699994, "- N/A -   "
33.5, 1317.45, 0.055971, NaN, NaN, NaN, 0.0445584, "- N/A -   "
33.53, 1319, 0.0560293, NaN, NaN, NaN, 0.04089605, "- N/A -   "
33.56, 1320.79, 0.05609316, NaN, NaN, NaN, 0.0347922, "- N/A -   "
33.59, 1322.22, 0.0561459, NaN, NaN, NaN, 0.0335714, "- N/A -   "
33.62, 1323.41, 0.0561959, NaN, NaN, NaN, 0.0347922, "- N/A -   "
33.65, 1324.844, 0.0562459, NaN, NaN, NaN, 0.0347922, "- N/A -   "
33.68, 1326.275, 0.0562959, NaN, NaN, NaN, 0.0335714, "- N/A -   "
33.71, 1327.47, 0.0563458, NaN, NaN, NaN, 0.0335714, "- N/A -   "
33.74, 1328.9, 0.0563986, NaN, NaN, NaN, 0.0323506, "- N/A -   "
33.77, 1330.568, 0.05645414, NaN, NaN, NaN, 0.0299091, "- N/A -   "
33.8, 1332.12, 0.0565097, NaN, NaN, NaN, 0.0274675, "- N/A -   "
33.83, 1333.31, 0.0565624, NaN, NaN, NaN, 0.0274675, "- N/A -   "
33.86, 1334.5, 0.0566041, NaN, NaN, NaN, 0.0299091, "- N/A -   "
33.89, 1335.58, 0.05664851, NaN, NaN, NaN, 0.0323506, "- N/A -   "
33.92, 1336.77, 0.0566957, NaN, NaN, NaN, 0.0347922, "- N/A -   "
33.95, 1337.84, 0.0567374, NaN, NaN, NaN, 0.0384545, "- N/A -   "
33.98, 1338.92, 0.05677902, NaN, NaN, NaN, 0.04089605, "- N/A -   "
34.01, 1340.11, 0.0568234, NaN, NaN, NaN, 0.0433376, "- N/A -   "
34.04, 1341.18, 0.05686788, NaN, NaN, NaN, 0.04577916, "- N/A -   "
34.061, 1342.02, 0.0569012, NaN, NaN, NaN, 0.04699994, "- N/A -   "