File: 2_Tensile_Data/Hamel_ForceTest_Bolt10_Test11.csv
Time, Load (lb), Position (in), AxialStrain (in), TransverseStrain (in), Auxiliary (), Control Out (V), Stress (psi)
0.0, 13.446, 0.0, NaN, NaN, NaN, -0.007935055, "- N/A -   "
0.01, 13.446, -2.776752E-6, NaN, NaN, NaN, -6.103888E-4, "- N/A -   "
0.02, 13.446, 0.0, NaN, NaN, NaN, 0.006714277, "- N/A -   "
0.03, 13.564, 0.0, NaN, NaN, NaN, 0.0250259, "- N/A -   "
0.04, 13.564, 5.553504E-6, NaN, NaN, NaN, 0.04211683, "- N/A -   "
0.05, 13.6819, 1.66605e-05, NaN, NaN, NaN, 0.05676616, "- N/A -   "
0.06, 14.0357, 3.054427E-5, NaN, NaN, NaN, 0.0701947, "- N/A -   "
0.07, 14.5075, 5.27583e-05, NaN, NaN, NaN, 0.0799609, "- N/A -   "
0.08, 15.0973, 7.774905E-5, NaN, NaN, NaN, 0.0897272, "- N/A -   "
0.09, 15.687, 0.000105517, NaN, NaN, NaN, 0.09705182, "- N/A -   "
0.1, 16.3947, 0.000136061, NaN, NaN, NaN, 0.100714, "- N/A -   "
0.11, 16.9844, 0.000166605, NaN, NaN, NaN, 0.09461027, "- N/A -   "
0.12, 17.5742, 0.000197149, NaN, NaN, NaN, 0.08850638, "- N/A -   "
0.13, 18.046, 0.00022214, NaN, NaN, NaN, 0.08362327, "- N/A -   "
0.14, 18.7536, 0.000249908, NaN, NaN, NaN, 0.07874016, "- N/A -   "
0.15, 19.1075, 0.000274898, NaN, NaN, NaN, 0.0750778, "- N/A -   "
0.16, 19.57928, 0.000297112, NaN, NaN, NaN, 0.07263627, "- N/A -   "
0.17, 19.9331, 3.165497E-4, NaN, NaN, NaN, 0.07141549, "- N/A -   "
0.18, 20.287, 0.000335987, NaN, NaN, NaN, 0.0701947, "- N/A -   "
0.19, 20.6408, 0.000355424, NaN, NaN, NaN, 0.0689739, "- N/A -   "
0.2, 21.1126, 3.748615E-4, NaN, NaN, NaN, 0.06775316, "- N/A -   "
0.21, 21.46644, 0.000397076, NaN, NaN, NaN, 0.0653116, "- N/A -   "
0.22, 21.8203, 0.000416513, NaN, NaN, NaN, 0.0653116, "- N/A -   "
0.23, 22.1741, 0.00043595, NaN, NaN, NaN, 0.0640908, "- N/A -   "
0.24, 22.528, 4.553873E-4, NaN, NaN, NaN, 0.06287005, "- N/A -   "
0.25, 22.88181, 0.000474825, NaN, NaN, NaN, 0.06164927, "- N/A -   "
0.26, 23.2357, 0.000491485, NaN, NaN, NaN, 0.0604285, "- N/A -   "
0.27, 23.5895, 0.000510922, NaN, NaN, NaN, 0.0592077, "- N/A -   "
0.28, 23.82539, 0.000533136, NaN, NaN, NaN, 0.0579869, "- N/A -   "
0.29, 24.29718, 0.000549797, NaN, NaN, NaN, 0.05676616, "- N/A -   "
0.3, 24.65102, 5.720109E-4, NaN, NaN, NaN, 0.0543246, "- N/A -   "
0.31, 25.0049, 0.000591448, NaN, NaN, NaN, 0.0531038, "- N/A -   "
0.32, 25.4767, 6.136621E-4, NaN, NaN, NaN, 0.05066227, "- N/A -   "
0.33, 25.8305, 6.330994E-4, NaN, NaN, NaN, 0.0494415, "- N/A -   "
0.34, 26.0664, 0.000655313, NaN, NaN, NaN, 0.04699994, "- N/A -   "
0.35, 26.4202, 6.747507E-4, NaN, NaN, NaN, 0.04699994, "- N/A -   "
0.36, 26.7741, 6.914112E-4, NaN, NaN, NaN, 0.04577916, "- N/A -   "
0.37, 27.1279, 7.108485E-4, NaN, NaN, NaN, 0.0445584, "- N/A -   "
0.38, 27.4818, 7.302857E-4, NaN, NaN, NaN, 0.0433376, "- N/A -   "
0.39, 27.8356, 7.49723E-4, NaN, NaN, NaN, 0.04211683, "- N/A -   "
0.4, 28.1894, 7.691603E-4, NaN, NaN, NaN, 0.04089605, "- N/A -   "
0.41, 28.42534, 0.000785821, NaN, NaN, NaN, 0.04089605, "- N/A -   "
0.42, 28.89713, 0.000802481, NaN, NaN, NaN, 0.04089605, "- N/A -   "
0.43, 29.0151, 8.191418E-4, NaN, NaN, NaN, 0.04211683, "- N/A -   "
0.44, 29.3689, 8.358023E-4, NaN, NaN, NaN, 0.04211683, "- N/A -   "
0.45, 29.7228, 8.524628E-4, NaN, NaN, NaN, 0.04211683, "- N/A -   "
0.46, 29.9587, 8.691233E-4, NaN, NaN, NaN, 0.04089605, "- N/A -   "
0.47, 30.3125, 8.857838E-4, NaN, NaN, NaN, 0.04089605, "- N/A -   "
0.48, 30.6663, 9.052211E-4, NaN, NaN, NaN, 0.0396753, "- N/A -   "
0.49, 31.0202, 9.246584E-4, NaN, NaN, NaN, 0.0384545, "- N/A -   "
0.5, 31.374, 9.440956E-4, NaN, NaN, NaN, 0.0372337, "- N/A -   "
0.51, 31.8458, 9.663096E-4, NaN, NaN, NaN, 0.03601294, "- N/A -   "
0.57, 33.9689, 0.00108016, NaN, NaN, NaN, 0.0299091, "- N/A -   "
0.63, 35.7381, 0.00117734, NaN, NaN, NaN, 0.0299091, "- N/A -   "
0.69, 37.6252, 0.00127175, NaN, NaN, NaN, 0.0323506, "- N/A -   "
0.75, 39.2765, 0.00136339, NaN, NaN, NaN, 0.03601294, "- N/A -   "
0.81, 40.8098, 0.00144946, NaN, NaN, NaN, 0.0433376, "- N/A -   "
0.87, 42.93288, 0.00154943, NaN, NaN, NaN, 0.0433376, "- N/A -   "
0.93, 44.82, 0.00164661, NaN, NaN, NaN, 0.0433376, "- N/A -   "
0.99, 46.8251, 0.00174658, NaN, NaN, NaN, 0.0433376, "- N/A -   "
1.05, 49.0661, 0.00185487, NaN, NaN, NaN, 0.04089605, "- N/A -   "
1.11, 51.543, 0.00197149, NaN, NaN, NaN, 0.0323506, "- N/A -   "
1.17, 53.784, 0.00207979, NaN, NaN, NaN, 0.0286883, "- N/A -   "
1.23, 55.7892, 0.00217697, NaN, NaN, NaN, 0.0299091, "- N/A -   "
1.29, 57.91221, 0.002271383, NaN, NaN, NaN, 0.0323506, "- N/A -   "
1.35, 59.79937, 0.00236857, NaN, NaN, NaN, 0.0347922, "- N/A -   "
1.41, 61.9224, 0.00246576, NaN, NaN, NaN, 0.03601294, "- N/A -   "
1.47, 63.92753, 0.00256017, NaN, NaN, NaN, 0.0384545, "- N/A -   "
1.53, 65.81469, 0.00264624, NaN, NaN, NaN, 0.0433376, "- N/A -   "
1.59, 67.9377, 0.002743431, NaN, NaN, NaN, 0.0445584, "- N/A -   "
1.65, 70.41464, 0.00284895, NaN, NaN, NaN, 0.04211683, "- N/A -   "
1.71, 72.89154, 0.002965571, NaN, NaN, NaN, 0.03601294, "- N/A -   "
1.77, 75.25049, 0.00307386, NaN, NaN, NaN, 0.0323506, "- N/A -   "
1.83, 77.25559, 0.003165497, NaN, NaN, NaN, 0.0347922, "- N/A -   "
1.89, 79.37865, 0.003259907, NaN, NaN, NaN, 0.0372337, "- N/A -   "
1.95, 81.8555, 0.00336542, NaN, NaN, NaN, 0.03601294, "- N/A -   "
2.01, 84.09654, 0.003468163, NaN, NaN, NaN, 0.0335714, "- N/A -   "
2.07, 86.33755, 0.00356535, NaN, NaN, NaN, 0.0347922, "- N/A -   "
2.13, 88.4606, 0.00366254, NaN, NaN, NaN, 0.0372337, "- N/A -   "
2.19, 90.4657, 0.00375139, NaN, NaN, NaN, 0.04089605, "- N/A -   "
2.25, 93.0606, 0.00385969, NaN, NaN, NaN, 0.0372337, "- N/A -   "
2.31, 95.41951, 0.00395965, NaN, NaN, NaN, 0.0372337, "- N/A -   "
2.37, 97.6605, 0.00406239, NaN, NaN, NaN, 0.0372337, "- N/A -   "
2.43, 100.019, 0.00416235, NaN, NaN, NaN, 0.03601294, "- N/A -   "
2.49, 102.26, 0.00425954, NaN, NaN, NaN, 0.0372337, "- N/A -   "
2.55, 104.855, 0.00436783, NaN, NaN, NaN, 0.0335714, "- N/A -   "
2.61, 107.0963, 0.00447057, NaN, NaN, NaN, 0.0323506, "- N/A -   "
2.67, 109.455, 0.004567757, NaN, NaN, NaN, 0.0335714, "- N/A -   "
2.73, 111.8142, 0.00466772, NaN, NaN, NaN, 0.0335714, "- N/A -   "
2.79, 114.173, 0.00477046, NaN, NaN, NaN, 0.0323506, "- N/A -   "
2.85, 116.414, 0.004864869, NaN, NaN, NaN, 0.0347922, "- N/A -   "
2.91, 118.419, 0.00495373, NaN, NaN, NaN, 0.0396753, "- N/A -   "
2.97, 120.66, 0.00504813, NaN, NaN, NaN, 0.04211683, "- N/A -   "
3.03, 123.019, 0.005145321, NaN, NaN, NaN, 0.0445584, "- N/A -   "
3.09, 125.614, 0.00525084, NaN, NaN, NaN, 0.04089605, "- N/A -   "
3.15, 128.4448, 0.005370238, NaN, NaN, NaN, 0.0335714, "- N/A -   "
3.21, 130.6858, 0.00546742, NaN, NaN, NaN, 0.0335714, "- N/A -   "
3.27, 133.045, 0.00556739, NaN, NaN, NaN, 0.0347922, "- N/A -   "
3.33, 135.522, 0.00566735, NaN, NaN, NaN, 0.0335714, "- N/A -   "
3.39, 138.234, 0.00577842, NaN, NaN, NaN, 0.0286883, "- N/A -   "
3.45, 140.357, 0.005870053, NaN, NaN, NaN, 0.0323506, "- N/A -   "
3.51, 142.481, 0.005961686, NaN, NaN, NaN, 0.03601294, "- N/A -   "
3.57, 144.486, 0.006050542, NaN, NaN, NaN, 0.04211683, "- N/A -   "
3.63, 146.727, 0.006142175, NaN, NaN, NaN, 0.04577916, "- N/A -   "
3.69, 148.968, 0.006242138, NaN, NaN, NaN, 0.04699994, "- N/A -   "
3.75, 151.916, 0.006355985, NaN, NaN, NaN, 0.04089605, "- N/A -   "
3.81, 154.629, 0.006467055, NaN, NaN, NaN, 0.0347922, "- N/A -   "
3.87, 156.988, 0.00656979, NaN, NaN, NaN, 0.0335714, "- N/A -   "
3.93, 159.583, 0.006678088, NaN, NaN, NaN, 0.0299091, "- N/A -   "
3.99, 162.06, 0.00678083, NaN, NaN, NaN, 0.0286883, "- N/A -   "
4.05, 164.419, 0.00688357, NaN, NaN, NaN, 0.0274675, "- N/A -   "
4.11, 166.542, 0.00697242, NaN, NaN, NaN, 0.0323506, "- N/A -   "
4.17, 168.547, 0.00705573, NaN, NaN, NaN, 0.0396753, "- N/A -   "
4.23, 170.552, 0.00714736, NaN, NaN, NaN, 0.0445584, "- N/A -   "
4.29, 173.029, 0.00724177, NaN, NaN, NaN, 0.04577916, "- N/A -   "
4.35, 175.27, 0.007336179, NaN, NaN, NaN, 0.0482207, "- N/A -   "
4.41, 177.865, 0.00744447, NaN, NaN, NaN, 0.0445584, "- N/A -   "
4.47, 180.696, 0.007561095, NaN, NaN, NaN, 0.0384545, "- N/A -   "
4.53, 183.644, 0.0076805, NaN, NaN, NaN, 0.0286883, "- N/A -   "
4.59, 185.885, 0.00777491, NaN, NaN, NaN, 0.03112983, "- N/A -   "
4.65, 188.008, 0.007872092, NaN, NaN, NaN, 0.0323506, "- N/A -   "
4.71, 190.367, 0.007966501, NaN, NaN, NaN, 0.0347922, "- N/A -   "
4.77, 192.726, 0.008060911, NaN, NaN, NaN, 0.0372337, "- N/A -   "
4.83, 194.967, 0.008158097, NaN, NaN, NaN, 0.0396753, "- N/A -   "
4.89, 197.208, 0.008258061, NaN, NaN, NaN, 0.0396753, "- N/A -   "
4.95, 199.567, 0.008349692, NaN, NaN, NaN, 0.04211683, "- N/A -   "
5.01, 201.808, 0.00844688, NaN, NaN, NaN, 0.0433376, "- N/A -   "
5.07, 204.639, 0.00856073, NaN, NaN, NaN, 0.0372337, "- N/A -   "
5.13, 207.352, 0.008674572, NaN, NaN, NaN, 0.03112983, "- N/A -   "
5.19, 209.829, 0.008780089, NaN, NaN, NaN, 0.0299091, "- N/A -   "
5.25, 212.07, 0.008874499, NaN, NaN, NaN, 0.03112983, "- N/A -   "
5.31, 214.1926, 0.008963355, NaN, NaN, NaN, 0.03601294, "- N/A -   "
5.37, 216.434, 0.009060541, NaN, NaN, NaN, 0.0372337, "- N/A -   "
5.43, 219.028, 0.009171611, NaN, NaN, NaN, 0.0335714, "- N/A -   "
5.49, 221.152, 0.009263244, NaN, NaN, NaN, 0.03601294, "- N/A -   "
5.55, 223.157, 0.009357654, NaN, NaN, NaN, 0.0384545, "- N/A -   "
5.61, 225.28, 0.00944651, NaN, NaN, NaN, 0.0433376, "- N/A -   "
5.67, 227.757, 0.009552026, NaN, NaN, NaN, 0.04089605, "- N/A -   "
5.73, 229.998, 0.00965199, NaN, NaN, NaN, 0.04089605, "- N/A -   "
5.79, 232.357, 0.009760283, NaN, NaN, NaN, 0.0384545, "- N/A -   "
5.85, 234.833, 0.009865799, NaN, NaN, NaN, 0.03601294, "- N/A -   "
5.91, 236.956, 0.009962986, NaN, NaN, NaN, 0.03601294, "- N/A -   "
5.97, 239.315, 0.0100657, NaN, NaN, NaN, 0.03601294, "- N/A -   "
6.03, 241.556, 0.0101685, NaN, NaN, NaN, 0.0347922, "- N/A -   "
6.09, 243.914, 0.0102712, NaN, NaN, NaN, 0.0323506, "- N/A -   "
6.15, 246.035, 0.0103684, NaN, NaN, NaN, 0.0347922, "- N/A -   "
6.21, 248.156, 0.0104656, NaN, NaN, NaN, 0.0347922, "- N/A -   "
6.27, 250.159, 0.01056, NaN, NaN, NaN, 0.0372337, "- N/A -   "
6.33, 252.28, 0.0106572, NaN, NaN, NaN, 0.0384545, "- N/A -   "
6.39, 254.4, 0.0107516, NaN, NaN, NaN, 0.04089605, "- N/A -   "
6.45, 256.5213, 0.0108515, NaN, NaN, NaN, 0.04211683, "- N/A -   "
6.51, 258.996, 0.0109543, NaN, NaN, NaN, 0.0396753, "- N/A -   "
6.57, 261.588, 0.0110709, NaN, NaN, NaN, 0.0323506, "- N/A -   "
6.63, 263.591, 0.01117365, NaN, NaN, NaN, 0.0323506, "- N/A -   "
6.69, 265.83, 0.0112708, NaN, NaN, NaN, 0.0323506, "- N/A -   "
6.75, 268.1861, 0.0113764, NaN, NaN, NaN, 0.0299091, "- N/A -   "
6.81, 270.425, 0.0114846, NaN, NaN, NaN, 0.0274675, "- N/A -   "
6.87, 272.428, 0.0115735, NaN, NaN, NaN, 0.03112983, "- N/A -   "
6.93, 274.195, 0.0116596, NaN, NaN, NaN, 0.0372337, "- N/A -   "
6.99, 275.963, 0.01174566, NaN, NaN, NaN, 0.0433376, "- N/A -   "
7.05, 277.73, 0.01183174, NaN, NaN, NaN, 0.0494415, "- N/A -   "
7.11, 280.087, 0.01194, NaN, NaN, NaN, 0.04577916, "- N/A -   "
7.17, 282.6787, 0.0120594, NaN, NaN, NaN, 0.0372337, "- N/A -   "
7.23, 285.153, 0.0121677, NaN, NaN, NaN, 0.0335714, "- N/A -   "
7.29, 287.274, 0.0122732, NaN, NaN, NaN, 0.0323506, "- N/A -   "
7.35, 289.5126, 0.01237876, NaN, NaN, NaN, 0.0286883, "- N/A -   "
7.41, 291.516, 0.0124759, NaN, NaN, NaN, 0.0299091, "- N/A -   "
7.47, 293.637, 0.0125787, NaN, NaN, NaN, 0.0286883, "- N/A -   "
7.53, 295.7574, 0.0126731, NaN, NaN, NaN, 0.0323506, "- N/A -   "
7.59, 297.289, 0.0127508, NaN, NaN, NaN, 0.04089605, "- N/A -   "
7.65, 299.057, 0.0128425, NaN, NaN, NaN, 0.0445584, "- N/A -   "
7.71, 301.413, 0.012948, NaN, NaN, NaN, 0.0433376, "- N/A -   "
7.77, 303.5339, 0.0130452, NaN, NaN, NaN, 0.0433376, "- N/A -   "
7.83, 305.8904, 0.0131535, NaN, NaN, NaN, 0.04089605, "- N/A -   "
7.89, 308.247, 0.0132673, NaN, NaN, NaN, 0.0347922, "- N/A -   "
7.95, 310.8391, 0.01337839, NaN, NaN, NaN, 0.0286883, "- N/A -   "
8.01, 312.842, 0.0134784, NaN, NaN, NaN, 0.0286883, "- N/A -   "
8.07, 315.081, 0.0135783, NaN, NaN, NaN, 0.0286883, "- N/A -   "
8.13, 317.084, 0.0136727, NaN, NaN, NaN, 0.03112983, "- N/A -   "
8.19, 318.8513, 0.0137671, NaN, NaN, NaN, 0.0347922, "- N/A -   "
8.25, 320.9722, 0.0138643, NaN, NaN, NaN, 0.0372337, "- N/A -   "
8.31, 322.9752, 0.013956, NaN, NaN, NaN, 0.04089605, "- N/A -   "
8.37, 324.86, 0.0140476, NaN, NaN, NaN, 0.0445584, "- N/A -   "
8.43, 326.863, 0.0141392, NaN, NaN, NaN, 0.04699994, "- N/A -   "
8.49, 329.22, 0.0142475, NaN, NaN, NaN, 0.0433376, "- N/A -   "
8.55, 331.694, 0.0143614, NaN, NaN, NaN, 0.0372337, "- N/A -   "
8.61, 334.1687, 0.0144752, NaN, NaN, NaN, 0.0323506, "- N/A -   "
8.67, 336.172, 0.0145696, NaN, NaN, NaN, 0.0335714, "- N/A -   "
8.73, 338.2926, 0.014664, NaN, NaN, NaN, 0.03601294, "- N/A -   "
8.79, 340.296, 0.0147612, NaN, NaN, NaN, 0.0372337, "- N/A -   "
8.85, 342.652, 0.01487506, NaN, NaN, NaN, 0.0323506, "- N/A -   "
8.91, 344.773, 0.014975, NaN, NaN, NaN, 0.03112983, "- N/A -   "
8.97, 346.54, 0.0150611, NaN, NaN, NaN, 0.0372337, "- N/A -   "
8.99, 347.13, 0.0150861, NaN, NaN, NaN, 0.04089605, "- N/A -   "
9, 347.483, 0.0151, NaN, NaN, NaN, 0.04211683, "- N/A -   "
9.01, 347.719, 0.01511386, NaN, NaN, NaN, 0.0433376, "- N/A -   "
9.28, 357.6161, 0.0155748, NaN, NaN, NaN, 0.0384545, "- N/A -   "
9.55, 367.5135, 0.0160385, NaN, NaN, NaN, 0.0335714, "- N/A -   "
9.82, 376.35, 0.0164634, NaN, NaN, NaN, 0.0433376, "- N/A -   "
10.09, 386.4835, 0.0169382, NaN, NaN, NaN, 0.0335714, "- N/A -   "
10.36, 395.674, 0.01737136, NaN, NaN, NaN, 0.0396753, "- N/A -   "
10.63, 405.689, 0.0178323, NaN, NaN, NaN, 0.0347922, "- N/A -   "
10.9, 415.587, 0.0182877, NaN, NaN, NaN, 0.0335714, "- N/A -   "
11.17, 424.777, 0.0187098, NaN, NaN, NaN, 0.0445584, "- N/A -   "
11.44, 435.3813, 0.0191957, NaN, NaN, NaN, 0.0299091, "- N/A -   "
11.71, 444.69, 0.0196205, NaN, NaN, NaN, 0.0396753, "- N/A -   "
11.98, 455.53, 0.0200981, NaN, NaN, NaN, 0.0286883, "- N/A -   "
12.25, 465.309, 0.0205396, NaN, NaN, NaN, 0.0323506, "- N/A -   "
12.52, 474.735, 0.02097, NaN, NaN, NaN, 0.0396753, "- N/A -   "
12.79, 485.34, 0.0214365, NaN, NaN, NaN, 0.0335714, "- N/A -   "
13.06, 495.237, 0.0218836, NaN, NaN, NaN, 0.0347922, "- N/A -   "
13.33, 505.134, 0.0223251, NaN, NaN, NaN, 0.0396753, "- N/A -   "
13.6, 515.6291, 0.022786, NaN, NaN, NaN, 0.0335714, "- N/A -   "
13.87, 524.973, 0.0232081, NaN, NaN, NaN, 0.04577916, "- N/A -   "
14.14, 536.0916, 0.0236885, NaN, NaN, NaN, 0.0335714, "- N/A -   "
14.41, 545.791, 0.0241189, NaN, NaN, NaN, 0.04089605, "- N/A -   "
14.68, 556.3177, 0.0245715, NaN, NaN, NaN, 0.0396753, "- N/A -   "
14.95, 567.1995, 0.0250352, NaN, NaN, NaN, 0.0335714, "- N/A -   "
15.22, 576.8985, 0.02546, NaN, NaN, NaN, 0.0445584, "- N/A -   "
15.49, 588.372, 0.0259432, NaN, NaN, NaN, 0.03112983, "- N/A -   "
15.76, 598.662, 0.0263764, NaN, NaN, NaN, 0.0372337, "- N/A -   "
16.03, 609.544, 0.0268262, NaN, NaN, NaN, 0.0372337, "- N/A -   "
16.3, 620.189, 0.0272844, NaN, NaN, NaN, 0.0335714, "- N/A -   "
16.57, 630.48, 0.0277203, NaN, NaN, NaN, 0.04089605, "- N/A -   "
16.84, 641.716, 0.0281868, NaN, NaN, NaN, 0.0323506, "- N/A -   "
17.11, 652.48, 0.0286366, NaN, NaN, NaN, 0.0323506, "- N/A -   "
17.38, 662.7704, 0.0290643, NaN, NaN, NaN, 0.0433376, "- N/A -   "
17.65, 674.5985, 0.029553, NaN, NaN, NaN, 0.0262467, "- N/A -   "
17.92, 684.2975, 0.0299612, NaN, NaN, NaN, 0.0445584, "- N/A -   "
18.19, 696.1256, 0.0304443, NaN, NaN, NaN, 0.0299091, "- N/A -   "
18.46, 706.6526, 0.0308775, NaN, NaN, NaN, 0.0372337, "- N/A -   "
18.73, 717.416, 0.031319, NaN, NaN, NaN, 0.04089605, "- N/A -   "
19, 728.653, 0.0317799, NaN, NaN, NaN, 0.03601294, "- N/A -   "
19.27, 739.298, 0.0322159, NaN, NaN, NaN, 0.04211683, "- N/A -   "
19.54, 750.771, 0.03267404, NaN, NaN, NaN, 0.0384545, "- N/A -   "
19.81, 762.008, 0.033135, NaN, NaN, NaN, 0.0335714, "- N/A -   "
20.08, 772.417, 0.0335626, NaN, NaN, NaN, 0.0433376, "- N/A -   "
20.35, 784.2449, 0.0340402, NaN, NaN, NaN, 0.03112983, "- N/A -   "
20.62, 794.5353, 0.0344678, NaN, NaN, NaN, 0.04089605, "- N/A -   "
20.89, 806.0085, 0.034926, NaN, NaN, NaN, 0.0372337, "- N/A -   "
21.16, 817.3635, 0.03539248, NaN, NaN, NaN, 0.0299091, "- N/A -   "
21.43, 827.6539, 0.0358118, NaN, NaN, NaN, 0.0433376, "- N/A -   "
21.7, 839.719, 0.0362977, NaN, NaN, NaN, 0.0286883, "- N/A -   "
21.97, 850.364, 0.0367225, NaN, NaN, NaN, 0.0396753, "- N/A -   "
22.24, 862.074, 0.037189, NaN, NaN, NaN, 0.0323506, "- N/A -   "
22.51, 873.3103, 0.0376361, NaN, NaN, NaN, 0.0335714, "- N/A -   "
22.78, 884.074, 0.0380693, NaN, NaN, NaN, 0.04089605, "- N/A -   "
23.05, 895.902, 0.0385441, NaN, NaN, NaN, 0.03112983, "- N/A -   "
23.32, 906.7838, 0.03898282, NaN, NaN, NaN, 0.0347922, "- N/A -   "
23.59, 917.784, 0.0394243, NaN, NaN, NaN, 0.0384545, "- N/A -   "
23.86, 929.8486, 0.03989637, NaN, NaN, NaN, 0.0286883, "- N/A -   "
24.13, 939.7841, 0.040299, NaN, NaN, NaN, 0.05066227, "- N/A -   "
24.4, 952.677, 0.0408044, NaN, NaN, NaN, 0.0250259, "- N/A -   "
24.67, 962.8489, 0.0412181, NaN, NaN, NaN, 0.04089605, "- N/A -   "
24.94, 974.677, 0.0416846, NaN, NaN, NaN, 0.0347922, "- N/A -   "
25.21, 986.2685, 0.04213166, NaN, NaN, NaN, 0.0347922, "- N/A -   "
25.48, 996.914, 0.0425593, NaN, NaN, NaN, 0.04577916, "- N/A -   "
25.75, 1009.1, 0.0430341, NaN, NaN, NaN, 0.0335714, "- N/A -   "
26.02, 1020.39, 0.0434728, NaN, NaN, NaN, 0.0384545, "- N/A -   "
26.29, 1032.08, 0.04393099, NaN, NaN, NaN, 0.03601294, "- N/A -   "
26.56, 1043.65, 0.0443808, NaN, NaN, NaN, 0.0372337, "- N/A -   "
26.83, 1054.86, 0.0448168, NaN, NaN, NaN, 0.04211683, "- N/A -   "
27.1, 1067.38, 0.0452916, NaN, NaN, NaN, 0.03112983, "- N/A -   "
27.37, 1078.59, 0.0457331, NaN, NaN, NaN, 0.0347922, "- N/A -   "
27.64, 1089.92, 0.0461691, NaN, NaN, NaN, 0.04089605, "- N/A -   "
27.91, 1102.2, 0.04664388, NaN, NaN, NaN, 0.03112983, "- N/A -   "
28.18, 1112.814, 0.04706317, NaN, NaN, NaN, 0.0445584, "- N/A -   "
28.45, 1125.45, 0.0475463, NaN, NaN, NaN, 0.0286883, "- N/A -   "
28.72, 1137.022, 0.0479906, NaN, NaN, NaN, 0.0323506, "- N/A -   "
28.99, 1148.23, 0.04842378, NaN, NaN, NaN, 0.0384545, "- N/A -   "
29.26, 1160.04, 0.0488792, NaN, NaN, NaN, 0.03601294, "- N/A -   "
29.53, 1171.72, 0.0493234, NaN, NaN, NaN, 0.0384545, "- N/A -   "
29.8, 1183.77, 0.0497844, NaN, NaN, NaN, 0.0347922, "- N/A -   "
30.07, 1195.46, 0.050237, NaN, NaN, NaN, 0.0323506, "- N/A -   "
30.34, 1206.19, 0.05065073, NaN, NaN, NaN, 0.0482207, "- N/A -   "
30.61, 1219.31, 0.05113944, NaN, NaN, NaN, 0.0323506, "- N/A -   "
30.88, 1230.16, 0.0515643, NaN, NaN, NaN, 0.0433376, "- N/A -   "
31.15, 1242.8, 0.05203633, NaN, NaN, NaN, 0.0347922, "- N/A -   "
31.42, 1254.49, 0.05248894, NaN, NaN, NaN, 0.0335714, "- N/A -   "
31.69, 1265.58, 0.052911, NaN, NaN, NaN, 0.0445584, "- N/A -   "
31.96, 1278.1, 0.05338583, NaN, NaN, NaN, 0.0335714, "- N/A -   "
32.23, 1289.78, 0.05381623, NaN, NaN, NaN, 0.04211683, "- N/A -   "
32.5, 1302.31, 0.05429383, NaN, NaN, NaN, 0.03112983, "- N/A -   "
32.77, 1313.992, 0.0547381, NaN, NaN, NaN, 0.0323506, "- N/A -   "
33.04, 1325.44, 0.0551713, NaN, NaN, NaN, 0.04089605, "- N/A -   "
33.31, 1337.72, 0.0556322, NaN, NaN, NaN, 0.0347922, "- N/A -   "
33.58, 1349.29, 0.0560765, NaN, NaN, NaN, 0.0372337, "- N/A -   "
33.85, 1361.57, 0.0565374, NaN, NaN, NaN, 0.0323506, "- N/A -   "
34.12, 1373.74, 0.0569928, NaN, NaN, NaN, 0.0299091, "- N/A -   "
34.39, 1384.47, 0.05740379, NaN, NaN, NaN, 0.0482207, "- N/A -   "
34.66, 1397.71, 0.0578925, NaN, NaN, NaN, 0.0299091, "- N/A -   "
34.93, 1408.32, 0.05830624, NaN, NaN, NaN, 0.04577916, "- N/A -   "
35.2, 1421.438, 0.0587922, NaN, NaN, NaN, 0.0299091, "- N/A -   "
35.47, 1433.01, 0.05922812, NaN, NaN, NaN, 0.0372337, "- N/A -   "
35.74, 1444.22, 0.05965296, NaN, NaN, NaN, 0.0482207, "- N/A -   "
36.01, 1456.975, 0.0601306, NaN, NaN, NaN, 0.0372337, "- N/A -   "
36.28, 1468.66, 0.06056651, NaN, NaN, NaN, 0.04211683, "- N/A -   "
36.55, 1481.18, 0.0610358, NaN, NaN, NaN, 0.0347922, "- N/A -   "
36.82, 1493.35, 0.0614884, NaN, NaN, NaN, 0.0335714, "- N/A -   "
37.09, 1504.2, 0.06191046, NaN, NaN, NaN, 0.04577916, "- N/A -   "
37.36, 1517.078, 0.0623825, NaN, NaN, NaN, 0.0347922, "- N/A -   "
37.63, 1528.884, 0.06282679, NaN, NaN, NaN, 0.0372337, "- N/A -   "
37.9, 1541.05, 0.06328218, NaN, NaN, NaN, 0.0347922, "- N/A -   "
38.17, 1553.57, 0.06374867, NaN, NaN, NaN, 0.0274675, "- N/A -   "
38.44, 1564.3, 0.06415963, NaN, NaN, NaN, 0.0445584, "- N/A -   "
38.71, 1577.3, 0.06464001, NaN, NaN, NaN, 0.03112983, "- N/A -   "
38.98, 1588.987, 0.0650787, NaN, NaN, NaN, 0.03601294, "- N/A -   "
39.25, 1601.39, 0.06553968, NaN, NaN, NaN, 0.03112983, "- N/A -   "
39.52, 1613.55, 0.06599229, NaN, NaN, NaN, 0.0299091, "- N/A -   "
39.79, 1625.12, 0.06642546, NaN, NaN, NaN, 0.0384545, "- N/A -   "
40.06, 1637.16, 0.0668753, NaN, NaN, NaN, 0.0384545, "- N/A -   "
40.33, 1649.45, 0.06733901, NaN, NaN, NaN, 0.0335714, "- N/A -   "
40.6, 1660.78, 0.06776663, NaN, NaN, NaN, 0.0433376, "- N/A -   "
40.87, 1673.54, 0.06823868, NaN, NaN, NaN, 0.0335714, "- N/A -   "
41.14, 1684.63, 0.06866074, NaN, NaN, NaN, 0.04577916, "- N/A -   "
41.41, 1697.27, 0.06913279, NaN, NaN, NaN, 0.0347922, "- N/A -   "
41.68, 1709.07, 0.0695743, NaN, NaN, NaN, 0.0384545, "- N/A -   "
41.95, 1720.88, 0.0700241, NaN, NaN, NaN, 0.0384545, "- N/A -   "
42.22, 1732.92, 0.07047952, NaN, NaN, NaN, 0.0372337, "- N/A -   "
42.49, 1744.37, 0.07091269, NaN, NaN, NaN, 0.0433376, "- N/A -   "
42.76, 1757.01, 0.0713875, NaN, NaN, NaN, 0.0335714, "- N/A -   "
43.03, 1768.819, 0.0718318, NaN, NaN, NaN, 0.03601294, "- N/A -   "
43.3, 1780.51, 0.07227052, NaN, NaN, NaN, 0.0396753, "- N/A -   "
43.57, 1793.15, 0.0727453, NaN, NaN, NaN, 0.0286883, "- N/A -   "
43.84, 1803.64, 0.0731563, NaN, NaN, NaN, 0.04577916, "- N/A -   "
44.11, 1816.76, 0.07363946, NaN, NaN, NaN, 0.03112983, "- N/A -   "
44.38, 1828.68, 0.07409485, NaN, NaN, NaN, 0.03112983, "- N/A -   "
44.65, 1839.65, 0.0745114, NaN, NaN, NaN, 0.0445584, "- N/A -   "
44.92, 1852.77, 0.07500007, NaN, NaN, NaN, 0.0274675, "- N/A -   "
45.19, 1863.15, 0.07540825, NaN, NaN, NaN, 0.04577916, "- N/A -   "
45.46, 1876.26, 0.0758942, NaN, NaN, NaN, 0.0299091, "- N/A -   "
45.73, 1887.59, 0.07632458, NaN, NaN, NaN, 0.0384545, "- N/A -   "
46, 1899.04, 0.07676053, NaN, NaN, NaN, 0.0445584, "- N/A -   "
46.27, 1911.68, 0.07723535, NaN, NaN, NaN, 0.0335714, "- N/A -   "
46.54, 1922.89, 0.0776657, NaN, NaN, NaN, 0.04211683, "- N/A -   "
46.81, 1935.29, 0.07813224, NaN, NaN, NaN, 0.0347922, "- N/A -   "
47.08, 1946.98, 0.07858208, NaN, NaN, NaN, 0.0347922, "- N/A -   "
47.35, 1958.07, 0.0790125, NaN, NaN, NaN, 0.0445584, "- N/A -   "
47.62, 1970.71, 0.07949008, NaN, NaN, NaN, 0.0323506, "- N/A -   "
47.89, 1981.92, 0.07992326, NaN, NaN, NaN, 0.0384545, "- N/A -   "
48.16, 1993.73, 0.08037864, NaN, NaN, NaN, 0.03601294, "- N/A -   "
48.43, 2006.01, 0.08084513, NaN, NaN, NaN, 0.0286883, "- N/A -   "
48.7, 2016.27, 0.08125887, NaN, NaN, NaN, 0.0445584, "- N/A -   "
48.97, 2029.27, 0.08175313, NaN, NaN, NaN, 0.0274675, "- N/A -   "
49.177, 2037.26, 0.08207245, NaN, NaN, NaN, 0.0372337, "- N/A -   "