File: 2_Tensile_Data/Hamel_ForceTest_Bolt5_Test1.csv
Time, Load (lb), Position (in), AxialStrain (in), TransverseStrain (in), Auxiliary (), Control Out (V), Stress (psi)
0.0,1.06153,0.0, NaN, NaN, NaN,0.09094793," ""- N/A -   """
0.01,1.17947,1.94373e-05, NaN, NaN, NaN,0.100714," ""- N/A -   """
0.02,1.65126,4.720478e-05, NaN, NaN, NaN,0.1092596," ""- N/A -   """
0.13,6.251216,0.000344317, NaN, NaN, NaN,0.07263627," ""- N/A -   """
0.24,10.3794,0.0006053319, NaN, NaN, NaN,0.0384545," ""- N/A -   """
0.35,13.446,0.0007969278, NaN, NaN, NaN,0.0347922," ""- N/A -   """
0.46,16.3947,0.000969086, NaN, NaN, NaN,0.0396753," ""- N/A -   """
0.57,19.3434,0.001152352, NaN, NaN, NaN,0.0396753," ""- N/A -   """
0.68,22.29207,0.00132729, NaN, NaN, NaN,0.0433376," ""- N/A -   """
0.79,25.3587,0.00152166, NaN, NaN, NaN,0.0384545," ""- N/A -   """
0.9,28.6612,0.00172714, NaN, NaN, NaN,0.0286883," ""- N/A -   """
1.01,31.2561,0.00189374, NaN, NaN, NaN,0.03601294," ""- N/A -   """
1.12,34.3227,0.00208812, NaN, NaN, NaN,0.0323506," ""- N/A -   """
1.23,36.9176,0.00225472, NaN, NaN, NaN,0.0384545," ""- N/A -   """
1.34,39.6304,0.00243243, NaN, NaN, NaN,0.04089605," ""- N/A -   """
1.45,42.697,0.00262125, NaN, NaN, NaN,0.0384545," ""- N/A -   """
1.56,45.6457,0.00281285, NaN, NaN, NaN,0.03601294," ""- N/A -   """
1.67,48.59436,0.003001669, NaN, NaN, NaN,0.0335714," ""- N/A -   """
1.78,51.30715,0.00317383, NaN, NaN, NaN,0.0372337," ""- N/A -   """
1.89,54.3738,0.00336542, NaN, NaN, NaN,0.0335714," ""- N/A -   """
2,56.85068,0.00353481, NaN, NaN, NaN,0.0396753," ""- N/A -   """
2.11,59.68142,0.00371252, NaN, NaN, NaN,0.04211683," ""- N/A -   """
2.22,62.866,0.00390689, NaN, NaN, NaN,0.0372337," ""- N/A -   """
2.33,65.81469,0.00410126, NaN, NaN, NaN,0.0323506," ""- N/A -   """
2.44,68.7634,0.004287305, NaN, NaN, NaN,0.03112983," ""- N/A -   """
2.55,71.71206,0.004473347, NaN, NaN, NaN,0.03112983," ""- N/A -   """
2.66,73.9531,0.00462885, NaN, NaN, NaN,0.04211683," ""- N/A -   """
2.77,76.6659,0.00480378, NaN, NaN, NaN,0.04577916," ""- N/A -   """
2.88,79.96838,0.00500648, NaN, NaN, NaN,0.0372337," ""- N/A -   """
2.99,82.91707,0.005200856, NaN, NaN, NaN,0.0323506," ""- N/A -   """
3.1,85.86576,0.005395229, NaN, NaN, NaN,0.0274675," ""- N/A -   """
3.21,88.57855,0.00556739, NaN, NaN, NaN,0.0323506," ""- N/A -   """
3.32,90.9375,0.005733992, NaN, NaN, NaN,0.04089605," ""- N/A -   """
3.43,93.76824,0.005908928, NaN, NaN, NaN,0.0445584," ""- N/A -   """
3.54,96.599,0.00609497, NaN, NaN, NaN,0.0445584," ""- N/A -   """
3.65,100.019,0.00631156, NaN, NaN, NaN,0.0286883," ""- N/A -   """
3.76,102.496,0.006486492, NaN, NaN, NaN,0.0323506," ""- N/A -   """
3.87,105.327,0.0066642, NaN, NaN, NaN,0.0347922," ""- N/A -   """
3.98,107.804,0.00683914, NaN, NaN, NaN,0.0384545," ""- N/A -   """
4.09,110.399,0.00700574, NaN, NaN, NaN,0.04577916," ""- N/A -   """
4.2,113.583,0.00720567, NaN, NaN, NaN,0.0384545," ""- N/A -   """
4.31,116.5321,0.007405597, NaN, NaN, NaN,0.0323506," ""- N/A -   """
4.42,119.363,0.00758053, NaN, NaN, NaN,0.03601294," ""- N/A -   """
4.53,122.076,0.00777213, NaN, NaN, NaN,0.0323506," ""- N/A -   """
4.64,124.67,0.00794151, NaN, NaN, NaN,0.0372337," ""- N/A -   """
4.75,127.265,0.008119223, NaN, NaN, NaN,0.0396753," ""- N/A -   """
4.86,129.978,0.008305265, NaN, NaN, NaN,0.0384545," ""- N/A -   """
4.97,132.6909,0.00849131, NaN, NaN, NaN,0.0384545," ""- N/A -   """
5.08,135.64,0.00868568, NaN, NaN, NaN,0.0323506," ""- N/A -   """
5.19,138.352,0.008868946, NaN, NaN, NaN,0.0323506," ""- N/A -   """
5.3,141.183,0.009057764, NaN, NaN, NaN,0.03112983," ""- N/A -   """
5.41,143.424,0.009221594, NaN, NaN, NaN,0.0384545," ""- N/A -   """
5.52,145.783,0.009385422, NaN, NaN, NaN,0.04699994," ""- N/A -   """
5.63,148.968,0.009590901, NaN, NaN, NaN,0.0384545," ""- N/A -   """
5.74,151.68,0.009782498, NaN, NaN, NaN,0.0335714," ""- N/A -   """
5.85,154.629,0.009971316, NaN, NaN, NaN,0.03112983," ""- N/A -   """
5.96,157.106,0.0101518, NaN, NaN, NaN,0.0323506," ""- N/A -   """
6.07,159.465,0.0103156, NaN, NaN, NaN,0.04089605," ""- N/A -   """
6.18,161.942,0.010485, NaN, NaN, NaN,0.0482207," ""- N/A -   """
6.29,165.2444,0.0106905, NaN, NaN, NaN,0.0372337," ""- N/A -   """
6.4,168.075,0.0108821, NaN, NaN, NaN,0.0335714," ""- N/A -   """
6.51,170.906,0.0110765, NaN, NaN, NaN,0.0286883," ""- N/A -   """
6.62,173.619,0.0112542, NaN, NaN, NaN,0.03112983," ""- N/A -   """
6.73,175.86,0.0114152, NaN, NaN, NaN,0.04211683," ""- N/A -   """
6.84,178.69,0.0115957, NaN, NaN, NaN,0.0433376," ""- N/A -   """
6.95,181.639,0.0117845, NaN, NaN, NaN,0.04089605," ""- N/A -   """
7.06,185.06,0.0119928, NaN, NaN, NaN,0.0286883," ""- N/A -   """
7.17,187.654,0.01217328, NaN, NaN, NaN,0.0299091," ""- N/A -   """
7.28,190.367,0.01234544, NaN, NaN, NaN,0.03601294," ""- N/A -   """
7.39,192.962,0.0125204, NaN, NaN, NaN,0.0384545," ""- N/A -   """
7.5,195.7928,0.0126925, NaN, NaN, NaN,0.0433376," ""- N/A -   """
7.61,199.095,0.0128952, NaN, NaN, NaN,0.0347922," ""- N/A -   """
7.72,202.162,0.0130896, NaN, NaN, NaN,0.03112983," ""- N/A -   """
7.83,204.7568,0.0132645, NaN, NaN, NaN,0.0347922," ""- N/A -   """
7.94,207.823,0.0134534, NaN, NaN, NaN,0.0323506," ""- N/A -   """
8.05,210.536,0.0136255, NaN, NaN, NaN,0.0372337," ""- N/A -   """
8.16,213.249,0.0138032, NaN, NaN, NaN,0.0396753," ""- N/A -   """
8.27,216.434,0.0139893, NaN, NaN, NaN,0.0384545," ""- N/A -   """
8.38,219.3823,0.0141753, NaN, NaN, NaN,0.0372337," ""- N/A -   """
8.49,222.567,0.0143669, NaN, NaN, NaN,0.0335714," ""- N/A -   """
8.6,225.516,0.0145474, NaN, NaN, NaN,0.0347922," ""- N/A -   """
8.71,228.464,0.0147307, NaN, NaN, NaN,0.0347922," ""- N/A -   """
8.82,231.177,0.0149028, NaN, NaN, NaN,0.0396753," ""- N/A -   """
8.93,234.362,0.0150889, NaN, NaN, NaN,0.0396753," ""- N/A -   """
9.04,237.5462,0.0152777, NaN, NaN, NaN,0.03601294," ""- N/A -   """
9.15,240.613,0.015461, NaN, NaN, NaN,0.03601294," ""- N/A -   """
9.26,243.7961,0.0156498, NaN, NaN, NaN,0.0347922," ""- N/A -   """
9.37,246.624,0.0158275, NaN, NaN, NaN,0.0372337," ""- N/A -   """
9.48,249.57,0.0160052, NaN, NaN, NaN,0.0384545," ""- N/A -   """
9.59,252.397,0.01617458, NaN, NaN, NaN,0.0445584," ""- N/A -   """
9.7,256.05,0.01637173, NaN, NaN, NaN,0.0384545," ""- N/A -   """
9.81,259.231,0.0165661, NaN, NaN, NaN,0.0347922," ""- N/A -   """
9.92,262.766,0.0167605, NaN, NaN, NaN,0.0286883," ""- N/A -   """
10.03,265.5939,0.0169326, NaN, NaN, NaN,0.0335714," ""- N/A -   """
10.14,268.1861,0.0170937, NaN, NaN, NaN,0.0433376," ""- N/A -   """
10.25,271.485,0.0172742, NaN, NaN, NaN,0.0445584," ""- N/A -   """
10.36,275.02,0.0174685, NaN, NaN, NaN,0.0396753," ""- N/A -   """
10.47,278.908,0.0176768, NaN, NaN, NaN,0.0286883," ""- N/A -   """
10.58,281.972,0.01785729, NaN, NaN, NaN,0.0299091," ""- N/A -   """
10.69,285.035,0.01802945, NaN, NaN, NaN,0.0347922," ""- N/A -   """
10.8,288.0987,0.0182072, NaN, NaN, NaN,0.0384545," ""- N/A -   """
10.91,291.162,0.0183765, NaN, NaN, NaN,0.0433376," ""- N/A -   """
11.02,294.9326,0.0185737, NaN, NaN, NaN,0.0372337," ""- N/A -   """
11.13,298.703,0.01877362, NaN, NaN, NaN,0.0299091," ""- N/A -   """
11.24,301.6487,0.0189458, NaN, NaN, NaN,0.0347922," ""- N/A -   """
11.35,305.066,0.019129, NaN, NaN, NaN,0.03601294," ""- N/A -   """
11.46,308.247,0.0193068, NaN, NaN, NaN,0.0384545," ""- N/A -   """
11.57,311.546,0.0194817, NaN, NaN, NaN,0.04089605," ""- N/A -   """
11.68,315.1987,0.0196761, NaN, NaN, NaN,0.03601294," ""- N/A -   """
11.79,318.8513,0.0198649, NaN, NaN, NaN,0.0335714," ""- N/A -   """
11.9,322.15,0.0200481, NaN, NaN, NaN,0.0335714," ""- N/A -   """
12.01,325.803,0.0202397, NaN, NaN, NaN,0.0299091," ""- N/A -   """
12.12,329.102,0.0204175, NaN, NaN, NaN,0.0335714," ""- N/A -   """
12.23,332.283,0.0205896, NaN, NaN, NaN,0.0372337," ""- N/A -   """
12.34,335.465,0.020759, NaN, NaN, NaN,0.0445584," ""- N/A -   """
12.45,339.2352,0.0209506, NaN, NaN, NaN,0.0396753," ""- N/A -   """
12.56,343.123,0.02115052, NaN, NaN, NaN,0.0323506," ""- N/A -   """
12.67,346.894,0.0213393, NaN, NaN, NaN,0.03112983," ""- N/A -   """
12.78,350.311,0.0215171, NaN, NaN, NaN,0.0335714," ""- N/A -   """
12.89,353.1387,0.0216753, NaN, NaN, NaN,0.0445584," ""- N/A -   """
13,356.438,0.0218447, NaN, NaN, NaN,0.05066227," ""- N/A -   """
13.11,360.915,0.0220613, NaN, NaN, NaN,0.0372337," ""- N/A -   """
13.22,364.9213,0.0222584, NaN, NaN, NaN,0.0299091," ""- N/A -   """
13.33,368.4561,0.0224445, NaN, NaN, NaN,0.0286883," ""- N/A -   """
13.44,371.873,0.0226194, NaN, NaN, NaN,0.0323506," ""- N/A -   """
13.55,374.701,0.0227777, NaN, NaN, NaN,0.0445584," ""- N/A -   """
13.66,378.4713,0.0229582, NaN, NaN, NaN,0.0445584," ""- N/A -   """
13.77,382.36,0.023147, NaN, NaN, NaN,0.04211683," ""- N/A -   """
13.88,386.719,0.023358, NaN, NaN, NaN,0.0299091," ""- N/A -   """
13.99,390.2539,0.02353575, NaN, NaN, NaN,0.0323506," ""- N/A -   """
14.1,393.7887,0.0237135, NaN, NaN, NaN,0.0347922," ""- N/A -   """
14.21,397.206,0.0238884, NaN, NaN, NaN,0.0396753," ""- N/A -   """
14.32,400.623,0.024055, NaN, NaN, NaN,0.04577916," ""- N/A -   """
14.43,404.864,0.0242605, NaN, NaN, NaN,0.0372337," ""- N/A -   """
14.54,409.5774,0.0244771, NaN, NaN, NaN,0.0213636," ""- N/A -   """
14.65,412.287,0.0246242, NaN, NaN, NaN,0.0372337," ""- N/A -   """
14.76,416.176,0.0248103, NaN, NaN, NaN,0.03601294," ""- N/A -   """
14.87,419.71,0.0249852, NaN, NaN, NaN,0.0396753," ""- N/A -   """
14.98,423.4809,0.0251657, NaN, NaN, NaN,0.04089605," ""- N/A -   """
15.09,427.6048,0.0253629, NaN, NaN, NaN,0.0347922," ""- N/A -   """
15.2,431.2574,0.0255433, NaN, NaN, NaN,0.03601294," ""- N/A -   """
15.31,435.2635,0.02573216, NaN, NaN, NaN,0.0335714," ""- N/A -   """
15.42,439.0339,0.0259126, NaN, NaN, NaN,0.0347922," ""- N/A -   """
15.53,442.804,0.02609869, NaN, NaN, NaN,0.0335714," ""- N/A -   """
15.64,446.339,0.0262681, NaN, NaN, NaN,0.0396753," ""- N/A -   """
15.75,449.992,0.026443, NaN, NaN, NaN,0.0445584," ""- N/A -   """
15.86,454.2335,0.0266402, NaN, NaN, NaN,0.0372337," ""- N/A -   """
15.97,458.475,0.0268373, NaN, NaN, NaN,0.03112983," ""- N/A -   """
15.99,459.064,0.0268679, NaN, NaN, NaN,0.0323506," ""- N/A -   """
16,459.3,0.0268845, NaN, NaN, NaN,0.0323506," ""- N/A -   """
16.01,459.653,0.0269012, NaN, NaN, NaN,0.0335714," ""- N/A -   """
16.1,463.07,0.02705667, NaN, NaN, NaN,0.03112983," ""- N/A -   """
16.19,466.37,0.0272122, NaN, NaN, NaN,0.0274675," ""- N/A -   """
16.28,468.8439,0.0273371, NaN, NaN, NaN,0.0384545," ""- N/A -   """
16.37,471.79,0.027476, NaN, NaN, NaN,0.0433376," ""- N/A -   """
16.46,475.089,0.02763146, NaN, NaN, NaN,0.04089605," ""- N/A -   """
16.55,478.6235,0.0277925, NaN, NaN, NaN,0.03601294," ""- N/A -   """
16.64,481.923,0.027948, NaN, NaN, NaN,0.0347922," ""- N/A -   """
16.73,485.4574,0.0281063, NaN, NaN, NaN,0.0299091," ""- N/A -   """
16.82,488.6387,0.028259, NaN, NaN, NaN,0.0299091," ""- N/A -   """
16.91,491.113,0.028384, NaN, NaN, NaN,0.0396753," ""- N/A -   """
17,494.059,0.0285256, NaN, NaN, NaN,0.0445584," ""- N/A -   """
17.09,497.358,0.0286755, NaN, NaN, NaN,0.0433376," ""- N/A -   """
17.18,500.8926,0.0288338, NaN, NaN, NaN,0.04089605," ""- N/A -   """
17.27,504.899,0.0290115, NaN, NaN, NaN,0.0286883," ""- N/A -   """
17.36,508.1978,0.0291642, NaN, NaN, NaN,0.0274675," ""- N/A -   """
17.45,511.143,0.0293031, NaN, NaN, NaN,0.0335714," ""- N/A -   """
17.54,514.328,0.0294475, NaN, NaN, NaN,0.0347922," ""- N/A -   """
17.63,517.403,0.0295918, NaN, NaN, NaN,0.0372337," ""- N/A -   """
17.72,520.242,0.0297251, NaN, NaN, NaN,0.04577916," ""- N/A -   """
17.81,523.9087,0.02988618, NaN, NaN, NaN,0.04089605," ""- N/A -   """
17.9,527.575,0.03005001, NaN, NaN, NaN,0.0335714," ""- N/A -   """
17.99,530.769,0.0302, NaN, NaN, NaN,0.0347922," ""- N/A -   """
18.08,533.8443,0.03034157, NaN, NaN, NaN,0.0384545," ""- N/A -   """
18.17,537.6293,0.0305026, NaN, NaN, NaN,0.0323506," ""- N/A -   """
18.26,540.7046,0.03064701, NaN, NaN, NaN,0.0347922," ""- N/A -   """
18.35,543.425,0.0307803, NaN, NaN, NaN,0.0433376," ""- N/A -   """
18.44,546.9735,0.0309358, NaN, NaN, NaN,0.0396753," ""- N/A -   """
18.53,550.4036,0.0310857, NaN, NaN, NaN,0.0396753," ""- N/A -   """
18.62,553.952,0.0312468, NaN, NaN, NaN,0.0347922," ""- N/A -   """
18.71,557.5005,0.0314051, NaN, NaN, NaN,0.03112983," ""- N/A -   """
18.8,560.9306,0.03155223, NaN, NaN, NaN,0.0323506," ""- N/A -   """
18.89,564.0059,0.0316938, NaN, NaN, NaN,0.03601294," ""- N/A -   """
18.98,567.5544,0.0318493, NaN, NaN, NaN,0.0335714," ""- N/A -   """
19.07,570.511,0.0319854, NaN, NaN, NaN,0.04089605," ""- N/A -   """
19.16,573.705,0.03212702, NaN, NaN, NaN,0.0445584," ""- N/A -   """
19.25,577.372,0.03228807, NaN, NaN, NaN,0.0384545," ""- N/A -   """
19.34,581.1567,0.0324491, NaN, NaN, NaN,0.0335714," ""- N/A -   """
19.43,584.4685,0.03259907, NaN, NaN, NaN,0.0335714," ""- N/A -   """
19.52,588.135,0.03275734, NaN, NaN, NaN,0.0299091," ""- N/A -   """
19.61,591.4471,0.03290451, NaN, NaN, NaN,0.03112983," ""- N/A -   """
19.7,594.168,0.0330295, NaN, NaN, NaN,0.04211683," ""- N/A -   """
19.79,597.3611,0.0331711, NaN, NaN, NaN,0.04577916," ""- N/A -   """
19.88,601.028,0.0333294, NaN, NaN, NaN,0.04211683," ""- N/A -   """
19.97,604.9311,0.03349596, NaN, NaN, NaN,0.0347922," ""- N/A -   """
20.06,608.5978,0.03365701, NaN, NaN, NaN,0.0299091," ""- N/A -   """
20.15,612.3828,0.0338181, NaN, NaN, NaN,0.0250259," ""- N/A -   """
20.24,615.3398,0.0339513, NaN, NaN, NaN,0.0323506," ""- N/A -   """
20.33,618.2968,0.0340874, NaN, NaN, NaN,0.0396753," ""- N/A -   """
20.42,621.372,0.0342235, NaN, NaN, NaN,0.0445584," ""- N/A -   """
20.51,625.0389,0.03437619, NaN, NaN, NaN,0.0445584," ""- N/A -   """
20.6,628.7055,0.03453446, NaN, NaN, NaN,0.0396753," ""- N/A -   """
20.69,633.082,0.034715, NaN, NaN, NaN,0.0274675," ""- N/A -   """
20.78,636.2755,0.03485657, NaN, NaN, NaN,0.03112983," ""- N/A -   """
20.87,639.3508,0.0349954, NaN, NaN, NaN,0.0347922," ""- N/A -   """
20.96,642.6627,0.03514257, NaN, NaN, NaN,0.0372337," ""- N/A -   """
21.05,646.093,0.035287, NaN, NaN, NaN,0.0384545," ""- N/A -   """
21.14,649.2864,0.035423, NaN, NaN, NaN,0.0445584," ""- N/A -   """
21.23,652.953,0.0355813, NaN, NaN, NaN,0.04089605," ""- N/A -   """
21.32,657.093,0.03575346, NaN, NaN, NaN,0.03112983," ""- N/A -   """
21.41,660.641,0.03590618, NaN, NaN, NaN,0.0299091," ""- N/A -   """
21.5,663.953,0.0360478, NaN, NaN, NaN,0.0335714," ""- N/A -   """
21.59,667.62,0.03620329, NaN, NaN, NaN,0.03112983," ""- N/A -   """
21.68,670.8135,0.0363449, NaN, NaN, NaN,0.03601294," ""- N/A -   """
21.77,673.8888,0.036481, NaN, NaN, NaN,0.04211683," ""- N/A -   """
21.86,677.319,0.0366281, NaN, NaN, NaN,0.0433376," ""- N/A -   """
21.95,681.2222,0.0367892, NaN, NaN, NaN,0.0384545," ""- N/A -   """
22.04,684.889,0.0369447, NaN, NaN, NaN,0.0372337," ""- N/A -   """
22.13,688.556,0.03710018, NaN, NaN, NaN,0.0335714," ""- N/A -   """
22.22,691.9858,0.0372501, NaN, NaN, NaN,0.0347922," ""- N/A -   """
22.31,695.416,0.0373973, NaN, NaN, NaN,0.0347922," ""- N/A -   """
22.4,698.846,0.03754724, NaN, NaN, NaN,0.0347922," ""- N/A -   """
22.49,702.0397,0.0376833, NaN, NaN, NaN,0.04089605," ""- N/A -   """
22.58,705.2333,0.03782769, NaN, NaN, NaN,0.0445584," ""- N/A -   """
22.67,709.2548,0.037986, NaN, NaN, NaN,0.0396753," ""- N/A -   """
22.76,713.1581,0.0381553, NaN, NaN, NaN,0.03112983," ""- N/A -   """
22.85,716.4699,0.03829974, NaN, NaN, NaN,0.0335714," ""- N/A -   """
22.94,720.491,0.03846634, NaN, NaN, NaN,0.0262467," ""- N/A -   """
23.03,723.567,0.03859685, NaN, NaN, NaN,0.0347922," ""- N/A -   """
23.12,726.5238,0.0387357, NaN, NaN, NaN,0.04089605," ""- N/A -   """
23.21,729.7174,0.03886897, NaN, NaN, NaN,0.04699994," ""- N/A -   """
23.3,733.5023,0.0390328, NaN, NaN, NaN,0.04211683," ""- N/A -   """
23.39,737.7605,0.0391994, NaN, NaN, NaN,0.0335714," ""- N/A -   """
23.48,741.1906,0.0393521, NaN, NaN, NaN,0.0335714," ""- N/A -   """
23.57,744.976,0.0395076, NaN, NaN, NaN,0.0299091," ""- N/A -   """
23.66,748.2875,0.03965479, NaN, NaN, NaN,0.03112983," ""- N/A -   """
23.75,751.2445,0.0397853, NaN, NaN, NaN,0.04089605," ""- N/A -   """
23.84,754.556,0.0399241, NaN, NaN, NaN,0.0445584," ""- N/A -   """
23.93,758.1048,0.0400741, NaN, NaN, NaN,0.0445584," ""- N/A -   """
24.02,762.008,0.04023791, NaN, NaN, NaN,0.0384545," ""- N/A -   """
24.11,766.384,0.0404128, NaN, NaN, NaN,0.0274675," ""- N/A -   """
24.2,769.933,0.0405656, NaN, NaN, NaN,0.0262467," ""- N/A -   """
24.29,773.126,0.0407016, NaN, NaN, NaN,0.0323506," ""- N/A -   """
24.38,776.5566,0.040846, NaN, NaN, NaN,0.0347922," ""- N/A -   """
24.47,779.6319,0.0409849, NaN, NaN, NaN,0.0396753," ""- N/A -   """
24.56,783.062,0.04112647, NaN, NaN, NaN,0.0445584," ""- N/A -   """
24.65,786.729,0.0412792, NaN, NaN, NaN,0.04211683," ""- N/A -   """
24.74,790.9868,0.0414541, NaN, NaN, NaN,0.03112983," ""- N/A -   """
24.83,794.417,0.0415985, NaN, NaN, NaN,0.0335714," ""- N/A -   """
24.92,797.7289,0.04174569, NaN, NaN, NaN,0.03601294," ""- N/A -   """
25.01,801.5138,0.04190396, NaN, NaN, NaN,0.03112983," ""- N/A -   """
25.1,804.944,0.0420456, NaN, NaN, NaN,0.03601294," ""- N/A -   """
25.19,808.0193,0.0421844, NaN, NaN, NaN,0.04089605," ""- N/A -   """
25.28,811.686,0.04233158, NaN, NaN, NaN,0.04089605," ""- N/A -   """
25.37,815.5893,0.04249263, NaN, NaN, NaN,0.03601294," ""- N/A -   """
25.46,819.1377,0.0426426, NaN, NaN, NaN,0.03601294," ""- N/A -   """
25.55,822.9227,0.04280085, NaN, NaN, NaN,0.0323506," ""- N/A -   """
25.64,826.5894,0.0429536, NaN, NaN, NaN,0.03112983," ""- N/A -   """
25.73,830.1378,0.0431063, NaN, NaN, NaN,0.0299091," ""- N/A -   """
25.82,833.4497,0.0432424, NaN, NaN, NaN,0.03601294," ""- N/A -   """
25.91,836.643,0.04338397, NaN, NaN, NaN,0.04089605," ""- N/A -   """
26,839.955,0.04352281, NaN, NaN, NaN,0.0445584," ""- N/A -   """
26.09,843.9767,0.04368386, NaN, NaN, NaN,0.0396753," ""- N/A -   """
26.18,848.116,0.0438505, NaN, NaN, NaN,0.0347922," ""- N/A -   """
26.27,851.5467,0.0439949, NaN, NaN, NaN,0.03601294," ""- N/A -   """
26.36,855.5682,0.04416146, NaN, NaN, NaN,0.0299091," ""- N/A -   """
26.45,858.7618,0.0443031, NaN, NaN, NaN,0.0335714," ""- N/A -   """
26.54,861.8371,0.0444364, NaN, NaN, NaN,0.0396753," ""- N/A -   """
26.63,865.149,0.04456964, NaN, NaN, NaN,0.04699994," ""- N/A -   """
26.72,869.1705,0.0447335, NaN, NaN, NaN,0.04211683," ""- N/A -   """
26.81,873.0738,0.04489175, NaN, NaN, NaN,0.0372337," ""- N/A -   """
26.9,877.214,0.0450556, NaN, NaN, NaN,0.03112983," ""- N/A -   """
26.99,880.8803,0.0452111, NaN, NaN, NaN,0.0286883," ""- N/A -   """
27.08,884.3104,0.0453555, NaN, NaN, NaN,0.03112983," ""- N/A -   """
27.17,887.1492,0.04548042, NaN, NaN, NaN,0.04211683," ""- N/A -   """
27.26,890.698,0.045622, NaN, NaN, NaN,0.04577916," ""- N/A -   """
27.35,894.4826,0.04577753, NaN, NaN, NaN,0.0433376," ""- N/A -   """
27.44,898.268,0.045933, NaN, NaN, NaN,0.04211683," ""- N/A -   """
27.53,902.644,0.046108, NaN, NaN, NaN,0.03112983," ""- N/A -   """
27.62,906.192,0.04625513, NaN, NaN, NaN,0.03112983," ""- N/A -   """
27.71,909.623,0.0463967, NaN, NaN, NaN,0.03601294," ""- N/A -   """
27.8,913.0527,0.04653836, NaN, NaN, NaN,0.0396753," ""- N/A -   """
27.89,916.601,0.0466828, NaN, NaN, NaN,0.04089605," ""- N/A -   """
27.98,920.2678,0.04683547, NaN, NaN, NaN,0.04089605," ""- N/A -   """
28.038,922.87,0.0469382, NaN, NaN, NaN,0.0372337," ""- N/A -   """