File: 2_Tensile_Data/Hamel_ForceTest_Bolt8_Test7.csv
Time, Load (lb), Position (in), AxialStrain (in), TransverseStrain (in), Auxiliary (), Control Out (V), Stress (psi)
0.0, 16.86649, 0.0, NaN, NaN, NaN, -0.006714277, "- N/A -   "
0.01, 16.9844, 2.776752E-6, NaN, NaN, NaN, -6.103888E-4, "- N/A -   "
0.02, 16.86649, 2.776752E-6, NaN, NaN, NaN, 0.006714277, "- N/A -   "
0.03, 16.9844, 2.776752E-6, NaN, NaN, NaN, 0.0177013, "- N/A -   "
0.04, 16.86649, 5.553504E-6, NaN, NaN, NaN, 0.03601294, "- N/A -   "
0.05, 16.9844, 1.38838e-05, NaN, NaN, NaN, 0.05188305, "- N/A -   "
0.06, 17.2203, 2.77675e-05, NaN, NaN, NaN, 0.0653116, "- N/A -   "
0.07, 17.5742, 4.720478E-5, NaN, NaN, NaN, 0.07751938, "- N/A -   "
0.08, 17.928, 6.6642e-05, NaN, NaN, NaN, 0.0872856, "- N/A -   "
0.09, 18.2819, 9.440956E-5, NaN, NaN, NaN, 0.095831, "- N/A -   "
0.1, 18.7536, 0.000124954, NaN, NaN, NaN, 0.101935, "- N/A -   "
0.11, 19.3434, 0.000152721, NaN, NaN, NaN, 0.095831, "- N/A -   "
0.12, 19.6972, 0.000183266, NaN, NaN, NaN, 0.09094793, "- N/A -   "
0.13, 20.05107, 0.000208256, NaN, NaN, NaN, 0.0872856, "- N/A -   "
0.14, 20.4049, 2.304704E-4, NaN, NaN, NaN, 0.084844, "- N/A -   "
0.15, 20.7588, 2.526844E-4, NaN, NaN, NaN, 0.08118171, "- N/A -   "
0.16, 21.1126, 0.000274898, NaN, NaN, NaN, 0.07874016, "- N/A -   "
0.17, 21.3485, 0.000297112, NaN, NaN, NaN, 0.0762986, "- N/A -   "
0.18, 21.5844, 0.000319326, NaN, NaN, NaN, 0.07385705, "- N/A -   "
0.19, 22.0562, 0.00034154, NaN, NaN, NaN, 0.07263627, "- N/A -   "
0.2, 22.41, 0.000360978, NaN, NaN, NaN, 0.0701947, "- N/A -   "
0.21, 22.6459, 3.80415E-4, NaN, NaN, NaN, 0.0689739, "- N/A -   "
0.22, 22.88181, 0.000402629, NaN, NaN, NaN, 0.06775316, "- N/A -   "
0.23, 23.2357, 0.000422066, NaN, NaN, NaN, 0.06653238, "- N/A -   "
0.24, 23.5895, 4.442803E-4, NaN, NaN, NaN, 0.06287005, "- N/A -   "
0.25, 23.82539, 4.664943E-4, NaN, NaN, NaN, 0.0604285, "- N/A -   "
0.26, 24.1792, 0.000485932, NaN, NaN, NaN, 0.0592077, "- N/A -   "
0.27, 24.4151, 5.081456E-4, NaN, NaN, NaN, 0.0579869, "- N/A -   "
0.28, 24.65102, 0.000527583, NaN, NaN, NaN, 0.0555454, "- N/A -   "
0.29, 25.0049, 5.470201E-4, NaN, NaN, NaN, 0.0543246, "- N/A -   "
0.3, 25.2408, 5.720109E-4, NaN, NaN, NaN, 0.05188305, "- N/A -   "
0.31, 25.5946, 0.000591448, NaN, NaN, NaN, 0.0494415, "- N/A -   "
0.32, 25.8305, 6.108854E-4, NaN, NaN, NaN, 0.0482207, "- N/A -   "
0.33, 26.0664, 6.330994E-4, NaN, NaN, NaN, 0.04699994, "- N/A -   "
0.34, 26.4202, 6.525367E-4, NaN, NaN, NaN, 0.0445584, "- N/A -   "
0.35, 26.6561, 6.719739E-4, NaN, NaN, NaN, 0.0433376, "- N/A -   "
0.36, 26.892, 0.000694188, NaN, NaN, NaN, 0.04211683, "- N/A -   "
0.37, 27.1279, 7.136252E-4, NaN, NaN, NaN, 0.04089605, "- N/A -   "
0.38, 27.3638, 7.302857E-4, NaN, NaN, NaN, 0.0396753, "- N/A -   "
0.39, 27.5997, 7.49723E-4, NaN, NaN, NaN, 0.0396753, "- N/A -   "
0.4, 27.95355, 7.663835E-4, NaN, NaN, NaN, 0.0384545, "- N/A -   "
0.41, 28.0715, 0.000783044, NaN, NaN, NaN, 0.0384545, "- N/A -   "
0.42, 28.3074, 7.997045E-4, NaN, NaN, NaN, 0.0384545, "- N/A -   "
0.43, 28.54329, 8.191418E-4, NaN, NaN, NaN, 0.0384545, "- N/A -   "
0.44, 28.89713, 8.358023E-4, NaN, NaN, NaN, 0.0372337, "- N/A -   "
0.45, 29.0151, 8.552396E-4, NaN, NaN, NaN, 0.03601294, "- N/A -   "
0.46, 29.133, 0.0008719, NaN, NaN, NaN, 0.03601294, "- N/A -   "
0.47, 29.4869, 8.885606E-4, NaN, NaN, NaN, 0.03601294, "- N/A -   "
0.48, 29.4869, 9.052211E-4, NaN, NaN, NaN, 0.0372337, "- N/A -   "
0.49, 29.84071, 0.000919105, NaN, NaN, NaN, 0.0372337, "- N/A -   "
0.5, 30.0766, 9.385421E-4, NaN, NaN, NaN, 0.0372337, "- N/A -   "
0.51, 30.3125, 9.552026E-4, NaN, NaN, NaN, 0.03601294, "- N/A -   "
0.55, 31.1381, 0.00103295, NaN, NaN, NaN, 0.03112983, "- N/A -   "
0.59, 31.9638, 0.00110237, NaN, NaN, NaN, 0.0299091, "- N/A -   "
0.63, 32.9073, 0.00116624, NaN, NaN, NaN, 0.03112983, "- N/A -   "
0.67, 33.61503, 0.0012301, NaN, NaN, NaN, 0.0323506, "- N/A -   "
0.71, 34.3227, 0.00128841, NaN, NaN, NaN, 0.03601294, "- N/A -   "
0.75, 34.9125, 0.00134395, NaN, NaN, NaN, 0.04089605, "- N/A -   "
0.79, 35.6201, 0.00140226, NaN, NaN, NaN, 0.0445584, "- N/A -   "
0.83, 36.44577, 0.00146612, NaN, NaN, NaN, 0.04699994, "- N/A -   "
0.87, 37.2714, 0.00152721, NaN, NaN, NaN, 0.0482207, "- N/A -   "
0.91, 37.9791, 0.00160496, NaN, NaN, NaN, 0.0433376, "- N/A -   "
0.95, 38.9227, 0.00167993, NaN, NaN, NaN, 0.0396753, "- N/A -   "
0.99, 39.7483, 0.00175213, NaN, NaN, NaN, 0.0372337, "- N/A -   "
1.03, 40.69188, 0.0018271, NaN, NaN, NaN, 0.0335714, "- N/A -   "
1.07, 41.39956, 0.00189374, NaN, NaN, NaN, 0.0335714, "- N/A -   "
1.11, 42.3431, 0.001968717, NaN, NaN, NaN, 0.0299091, "- N/A -   "
1.15, 43.1688, 0.00204091, NaN, NaN, NaN, 0.0274675, "- N/A -   "
1.19, 43.9944, 0.00211033, NaN, NaN, NaN, 0.0274675, "- N/A -   "
1.23, 44.70209, 0.00216587, NaN, NaN, NaN, 0.03112983, "- N/A -   "
1.27, 45.5277, 0.00223251, NaN, NaN, NaN, 0.03112983, "- N/A -   "
1.31, 46.11746, 0.00229082, NaN, NaN, NaN, 0.03601294, "- N/A -   "
1.35, 46.9431, 0.00235191, NaN, NaN, NaN, 0.0384545, "- N/A -   "
1.39, 47.65078, 0.002413, NaN, NaN, NaN, 0.0396753, "- N/A -   "
1.43, 48.3585, 0.00247131, NaN, NaN, NaN, 0.0433376, "- N/A -   "
1.47, 49.0661, 0.00253517, NaN, NaN, NaN, 0.0445584, "- N/A -   "
1.51, 49.8918, 0.00260459, NaN, NaN, NaN, 0.0445584, "- N/A -   "
1.55, 50.7174, 0.00266568, NaN, NaN, NaN, 0.04577916, "- N/A -   "
1.59, 51.66099, 0.0027351, NaN, NaN, NaN, 0.04577916, "- N/A -   "
1.63, 52.36868, 0.002807296, NaN, NaN, NaN, 0.04211683, "- N/A -   "
1.67, 53.4302, 0.00288505, NaN, NaN, NaN, 0.0384545, "- N/A -   "
1.71, 54.4917, 0.002965571, NaN, NaN, NaN, 0.03112983, "- N/A -   "
1.75, 55.43531, 0.00303777, NaN, NaN, NaN, 0.0286883, "- N/A -   "
1.79, 56.2609, 0.00310441, NaN, NaN, NaN, 0.0286883, "- N/A -   "
1.83, 56.9686, 0.003168274, NaN, NaN, NaN, 0.0299091, "- N/A -   "
1.87, 57.79426, 0.00323214, NaN, NaN, NaN, 0.03112983, "- N/A -   "
1.91, 58.5019, 0.00329323, NaN, NaN, NaN, 0.0347922, "- N/A -   "
1.95, 59.4455, 0.003357093, NaN, NaN, NaN, 0.0347922, "- N/A -   "
1.99, 60.3891, 0.00342096, NaN, NaN, NaN, 0.0372337, "- N/A -   "
2.03, 61.09679, 0.00348482, NaN, NaN, NaN, 0.0384545, "- N/A -   "
2.07, 62.0404, 0.00355147, NaN, NaN, NaN, 0.0372337, "- N/A -   "
2.11, 62.866, 0.003615331, NaN, NaN, NaN, 0.0396753, "- N/A -   "
2.15, 63.5737, 0.00367364, NaN, NaN, NaN, 0.04211683, "- N/A -   "
2.19, 64.3993, 0.00373473, NaN, NaN, NaN, 0.0445584, "- N/A -   "
2.23, 65.3429, 0.00380415, NaN, NaN, NaN, 0.0445584, "- N/A -   "
2.27, 66.52237, 0.003881899, NaN, NaN, NaN, 0.0384545, "- N/A -   "
2.31, 67.34801, 0.00395409, NaN, NaN, NaN, 0.03601294, "- N/A -   "
2.35, 68.40953, 0.00402907, NaN, NaN, NaN, 0.0335714, "- N/A -   "
2.39, 69.35311, 0.00410126, NaN, NaN, NaN, 0.0299091, "- N/A -   "
2.43, 70.29669, 0.00417068, NaN, NaN, NaN, 0.0299091, "- N/A -   "
2.47, 71.12233, 0.004234547, NaN, NaN, NaN, 0.0299091, "- N/A -   "
2.51, 71.83001, 0.00429286, NaN, NaN, NaN, 0.0335714, "- N/A -   "
2.55, 72.77359, 0.00435672, NaN, NaN, NaN, 0.03601294, "- N/A -   "
2.59, 73.71717, 0.00442892, NaN, NaN, NaN, 0.0323506, "- N/A -   "
2.63, 74.7787, 0.00450111, NaN, NaN, NaN, 0.03112983, "- N/A -   "
2.67, 75.6043, 0.00455943, NaN, NaN, NaN, 0.0335714, "- N/A -   "
2.71, 76.31202, 0.004620515, NaN, NaN, NaN, 0.0372337, "- N/A -   "
2.75, 77.25559, 0.004678827, NaN, NaN, NaN, 0.0396753, "- N/A -   "
2.79, 77.96328, 0.00473714, NaN, NaN, NaN, 0.0433376, "- N/A -   "
2.83, 78.90686, 0.004809334, NaN, NaN, NaN, 0.04089605, "- N/A -   "
2.87, 79.96838, 0.004878753, NaN, NaN, NaN, 0.04089605, "- N/A -   "
2.91, 80.912, 0.00494262, NaN, NaN, NaN, 0.04211683, "- N/A -   "
2.95, 81.97349, 0.005014814, NaN, NaN, NaN, 0.0396753, "- N/A -   "
2.99, 83.03502, 0.00508979, NaN, NaN, NaN, 0.03601294, "- N/A -   "
3.03, 83.9786, 0.005156428, NaN, NaN, NaN, 0.0347922, "- N/A -   "
3.07, 85.04012, 0.005225847, NaN, NaN, NaN, 0.0347922, "- N/A -   "
3.11, 85.9837, 0.00529527, NaN, NaN, NaN, 0.0323506, "- N/A -   "
3.15, 86.80934, 0.00536191, NaN, NaN, NaN, 0.0335714, "- N/A -   "
3.19, 87.8709, 0.00543133, NaN, NaN, NaN, 0.0323506, "- N/A -   "
3.23, 88.8144, 0.00549797, NaN, NaN, NaN, 0.0323506, "- N/A -   "
3.27, 89.87598, 0.00555906, NaN, NaN, NaN, 0.0335714, "- N/A -   "
3.31, 90.81956, 0.005628476, NaN, NaN, NaN, 0.0335714, "- N/A -   "
3.35, 91.52724, 0.00569234, NaN, NaN, NaN, 0.0347922, "- N/A -   "
3.39, 92.58876, 0.005756207, NaN, NaN, NaN, 0.0347922, "- N/A -   "
3.43, 93.65029, 0.00582563, NaN, NaN, NaN, 0.0335714, "- N/A -   "
3.47, 94.59387, 0.00588949, NaN, NaN, NaN, 0.03601294, "- N/A -   "
3.51, 95.5374, 0.005950579, NaN, NaN, NaN, 0.0372337, "- N/A -   "
3.55, 96.36309, 0.006014445, NaN, NaN, NaN, 0.0396753, "- N/A -   "
3.59, 97.18872, 0.006072756, NaN, NaN, NaN, 0.0433376, "- N/A -   "
3.63, 98.2502, 0.006136622, NaN, NaN, NaN, 0.04577916, "- N/A -   "
3.67, 99.3118, 0.00620604, NaN, NaN, NaN, 0.0433376, "- N/A -   "
3.71, 100.491, 0.006278236, NaN, NaN, NaN, 0.04211683, "- N/A -   "
3.75, 101.671, 0.00635321, NaN, NaN, NaN, 0.0372337, "- N/A -   "
3.79, 102.6143, 0.006425404, NaN, NaN, NaN, 0.03601294, "- N/A -   "
3.83, 103.558, 0.006492046, NaN, NaN, NaN, 0.0347922, "- N/A -   "
3.87, 104.737, 0.006561464, NaN, NaN, NaN, 0.0347922, "- N/A -   "
3.91, 105.681, 0.00662811, NaN, NaN, NaN, 0.0347922, "- N/A -   "
3.95, 106.742, 0.0067003, NaN, NaN, NaN, 0.0323506, "- N/A -   "
3.99, 108.04, 0.00677527, NaN, NaN, NaN, 0.0286883, "- N/A -   "
4.03, 108.983, 0.00684192, NaN, NaN, NaN, 0.0274675, "- N/A -   "
4.07, 110.045, 0.00690301, NaN, NaN, NaN, 0.03112983, "- N/A -   "
4.11, 110.753, 0.00695576, NaN, NaN, NaN, 0.03601294, "- N/A -   "
4.15, 111.578, 0.0070113, NaN, NaN, NaN, 0.04089605, "- N/A -   "
4.19, 112.522, 0.00706961, NaN, NaN, NaN, 0.0445584, "- N/A -   "
4.23, 113.348, 0.00713625, NaN, NaN, NaN, 0.04577916, "- N/A -   "
4.27, 114.409, 0.00719734, NaN, NaN, NaN, 0.04699994, "- N/A -   "
4.31, 115.706, 0.00726954, NaN, NaN, NaN, 0.0445584, "- N/A -   "
4.35, 116.886, 0.00734729, NaN, NaN, NaN, 0.0396753, "- N/A -   "
4.39, 118.065, 0.007419481, NaN, NaN, NaN, 0.0372337, "- N/A -   "
4.43, 119.245, 0.00749168, NaN, NaN, NaN, 0.0347922, "- N/A -   "
4.47, 120.188, 0.0075611, NaN, NaN, NaN, 0.0335714, "- N/A -   "
4.51, 121.486, 0.007630514, NaN, NaN, NaN, 0.0323506, "- N/A -   "
4.55, 122.547, 0.007699933, NaN, NaN, NaN, 0.03112983, "- N/A -   "
4.59, 123.7269, 0.00777491, NaN, NaN, NaN, 0.0286883, "- N/A -   "
4.63, 124.788, 0.007838771, NaN, NaN, NaN, 0.0286883, "- N/A -   "
4.67, 125.85, 0.007908189, NaN, NaN, NaN, 0.0274675, "- N/A -   "
4.71, 126.911, 0.007969278, NaN, NaN, NaN, 0.0299091, "- N/A -   "
4.75, 127.737, 0.008022036, NaN, NaN, NaN, 0.03601294, "- N/A -   "
4.79, 128.6807, 0.008080348, NaN, NaN, NaN, 0.0396753, "- N/A -   "
4.83, 129.506, 0.00813866, NaN, NaN, NaN, 0.0433376, "- N/A -   "
4.87, 130.568, 0.008202525, NaN, NaN, NaN, 0.0445584, "- N/A -   "
4.91, 131.747, 0.008271944, NaN, NaN, NaN, 0.0433376, "- N/A -   "
4.95, 132.9268, 0.008335809, NaN, NaN, NaN, 0.0445584, "- N/A -   "
4.99, 133.87, 0.008402451, NaN, NaN, NaN, 0.0445584, "- N/A -   "
5.03, 135.05, 0.00847187, NaN, NaN, NaN, 0.0445584, "- N/A -   "
5.07, 136.347, 0.008546842, NaN, NaN, NaN, 0.04089605, "- N/A -   "
5.11, 137.6447, 0.008624592, NaN, NaN, NaN, 0.0347922, "- N/A -   "
5.15, 139.06, 0.008705118, NaN, NaN, NaN, 0.0299091, "- N/A -   "
5.19, 140.1216, 0.008771759, NaN, NaN, NaN, 0.0299091, "- N/A -   "
5.23, 141.301, 0.008838401, NaN, NaN, NaN, 0.0286883, "- N/A -   "
5.27, 142.245, 0.008902267, NaN, NaN, NaN, 0.0299091, "- N/A -   "
5.31, 143.424, 0.008966132, NaN, NaN, NaN, 0.03112983, "- N/A -   "
5.35, 144.368, 0.00902722, NaN, NaN, NaN, 0.0335714, "- N/A -   "
5.39, 145.429, 0.009093863, NaN, NaN, NaN, 0.0347922, "- N/A -   "
5.43, 146.6087, 0.00915773, NaN, NaN, NaN, 0.0347922, "- N/A -   "
5.47, 147.67, 0.009218816, NaN, NaN, NaN, 0.0372337, "- N/A -   "
5.51, 148.496, 0.009279905, NaN, NaN, NaN, 0.04089605, "- N/A -   "
5.55, 149.557, 0.009340993, NaN, NaN, NaN, 0.04211683, "- N/A -   "
5.59, 150.501, 0.009402082, NaN, NaN, NaN, 0.0445584, "- N/A -   "
5.63, 151.68, 0.009468724, NaN, NaN, NaN, 0.0445584, "- N/A -   "
5.67, 152.978, 0.009540919, NaN, NaN, NaN, 0.0433376, "- N/A -   "
5.71, 154.393, 0.009618668, NaN, NaN, NaN, 0.0384545, "- N/A -   "
5.75, 155.691, 0.00969364, NaN, NaN, NaN, 0.0335714, "- N/A -   "
5.79, 156.87, 0.00976306, NaN, NaN, NaN, 0.0323506, "- N/A -   "
5.83, 158.0496, 0.009835254, NaN, NaN, NaN, 0.03112983, "- N/A -   "
5.87, 159.111, 0.009899121, NaN, NaN, NaN, 0.03112983, "- N/A -   "
5.91, 160.173, 0.009960209, NaN, NaN, NaN, 0.0335714, "- N/A -   "
5.95, 161.234, 0.0100213, NaN, NaN, NaN, 0.03601294, "- N/A -   "
5.99, 162.296, 0.0100907, NaN, NaN, NaN, 0.0347922, "- N/A -   "
6, 162.65, 0.0101102, NaN, NaN, NaN, 0.0335714, "- N/A -   "
6.01, 163.0034, 0.0101296, NaN, NaN, NaN, 0.0323506, "- N/A -   "
6.02, 163.357, 0.0101463, NaN, NaN, NaN, 0.0323506, "- N/A -   "
6.03, 163.593, 0.0101629, NaN, NaN, NaN, 0.0335714, "- N/A -   "
6.04, 163.947, 0.0101796, NaN, NaN, NaN, 0.0323506, "- N/A -   "
6.05, 164.183, 0.0101962, NaN, NaN, NaN, 0.0323506, "- N/A -   "
6.06, 164.537, 0.0102129, NaN, NaN, NaN, 0.0323506, "- N/A -   "
6.07, 164.773, 0.0102296, NaN, NaN, NaN, 0.0323506, "- N/A -   "
6.08, 165.126, 0.0102462, NaN, NaN, NaN, 0.0323506, "- N/A -   "
6.09, 165.2444, 0.0102629, NaN, NaN, NaN, 0.0323506, "- N/A -   "
6.1, 165.4803, 0.0102768, NaN, NaN, NaN, 0.0335714, "- N/A -   "
6.11, 165.7162, 0.0102934, NaN, NaN, NaN, 0.0347922, "- N/A -   "
6.12, 166.07, 0.0103073, NaN, NaN, NaN, 0.0347922, "- N/A -   "
6.13, 166.306, 0.0103212, NaN, NaN, NaN, 0.03601294, "- N/A -   "
6.14, 166.66, 0.0103378, NaN, NaN, NaN, 0.0372337, "- N/A -   "
6.15, 166.778, 0.0103517, NaN, NaN, NaN, 0.0384545, "- N/A -   "
6.16, 167.014, 0.0103656, NaN, NaN, NaN, 0.0384545, "- N/A -   "
6.17, 167.25, 0.0103795, NaN, NaN, NaN, 0.0396753, "- N/A -   "
6.18, 167.367, 0.0103934, NaN, NaN, NaN, 0.04089605, "- N/A -   "
6.19, 167.839, 0.0104073, NaN, NaN, NaN, 0.04211683, "- N/A -   "
6.2, 168.075, 0.0104239, NaN, NaN, NaN, 0.04211683, "- N/A -   "
6.21, 168.311, 0.0104406, NaN, NaN, NaN, 0.04211683, "- N/A -   "
6.22, 168.665, 0.0104572, NaN, NaN, NaN, 0.04211683, "- N/A -   "
6.23, 168.901, 0.0104739, NaN, NaN, NaN, 0.04211683, "- N/A -   "
6.24, 169.255, 0.0104933, NaN, NaN, NaN, 0.04089605, "- N/A -   "
6.25, 169.608, 0.0105128, NaN, NaN, NaN, 0.0396753, "- N/A -   "
6.26, 169.962, 0.0105294, NaN, NaN, NaN, 0.0396753, "- N/A -   "
6.27, 170.1982, 0.01054888, NaN, NaN, NaN, 0.0384545, "- N/A -   "
6.28, 170.552, 0.0105655, NaN, NaN, NaN, 0.0396753, "- N/A -   "
6.29, 170.788, 0.0105794, NaN, NaN, NaN, 0.0396753, "- N/A -   "
6.3, 171.024, 0.0105961, NaN, NaN, NaN, 0.0396753, "- N/A -   "
6.31, 171.378, 0.0106127, NaN, NaN, NaN, 0.0396753, "- N/A -   "
6.32, 171.732, 0.0106294, NaN, NaN, NaN, 0.0396753, "- N/A -   "
6.33, 171.9674, 0.0106461, NaN, NaN, NaN, 0.0396753, "- N/A -   "
6.34, 172.321, 0.0106627, NaN, NaN, NaN, 0.0396753, "- N/A -   "
6.35, 172.557, 0.0106794, NaN, NaN, NaN, 0.0396753, "- N/A -   "
6.36, 172.911, 0.0106988, NaN, NaN, NaN, 0.0384545, "- N/A -   "
6.37, 173.029, 0.0107155, NaN, NaN, NaN, 0.0396753, "- N/A -   "
6.38, 173.501, 0.0107321, NaN, NaN, NaN, 0.0384545, "- N/A -   "
6.39, 173.619, 0.0107516, NaN, NaN, NaN, 0.0384545, "- N/A -   "
6.4, 173.973, 0.0107682, NaN, NaN, NaN, 0.0372337, "- N/A -   "
6.41, 174.326, 0.0107877, NaN, NaN, NaN, 0.03601294, "- N/A -   "
6.42, 174.6802, 0.0108043, NaN, NaN, NaN, 0.03601294, "- N/A -   "
6.43, 175.034, 0.010821, NaN, NaN, NaN, 0.03601294, "- N/A -   "
6.44, 175.27, 0.0108377, NaN, NaN, NaN, 0.03601294, "- N/A -   "
6.45, 175.506, 0.0108543, NaN, NaN, NaN, 0.03601294, "- N/A -   "
6.46, 175.86, 0.010871, NaN, NaN, NaN, 0.03601294, "- N/A -   "
6.47, 176.096, 0.0108876, NaN, NaN, NaN, 0.0372337, "- N/A -   "
6.48, 176.449, 0.0109043, NaN, NaN, NaN, 0.03601294, "- N/A -   "
6.49, 176.6853, 0.0109182, NaN, NaN, NaN, 0.0372337, "- N/A -   "
6.5, 176.9212, 0.0109348, NaN, NaN, NaN, 0.0372337, "- N/A -   "
6.51, 177.1571, 0.0109515, NaN, NaN, NaN, 0.0372337, "- N/A -   "
6.52, 177.393, 0.0109709, NaN, NaN, NaN, 0.0372337, "- N/A -   "
6.53, 177.865, 0.0109876, NaN, NaN, NaN, 0.03601294, "- N/A -   "
6.54, 178.1007, 0.0110043, NaN, NaN, NaN, 0.03601294, "- N/A -   "
6.55, 178.455, 0.0110237, NaN, NaN, NaN, 0.0347922, "- N/A -   "
6.56, 178.69, 0.0110404, NaN, NaN, NaN, 0.0347922, "- N/A -   "
6.57, 179.044, 0.011057, NaN, NaN, NaN, 0.0347922, "- N/A -   "
6.58, 179.3981, 0.0110737, NaN, NaN, NaN, 0.0347922, "- N/A -   "
6.59, 179.752, 0.0110931, NaN, NaN, NaN, 0.0335714, "- N/A -   "
6.6, 179.988, 0.0111098, NaN, NaN, NaN, 0.0335714, "- N/A -   "
6.61, 180.224, 0.0111292, NaN, NaN, NaN, 0.0335714, "- N/A -   "
6.62, 180.46, 0.0111459, NaN, NaN, NaN, 0.0335714, "- N/A -   "
6.63, 180.696, 0.0111625, NaN, NaN, NaN, 0.0335714, "- N/A -   "
6.64, 181.049, 0.0111764, NaN, NaN, NaN, 0.0335714, "- N/A -   "
6.65, 181.403, 0.0111959, NaN, NaN, NaN, 0.0335714, "- N/A -   "
6.66, 181.757, 0.0112125, NaN, NaN, NaN, 0.0335714, "- N/A -   "
6.67, 181.993, 0.0112264, NaN, NaN, NaN, 0.0335714, "- N/A -   "
6.68, 182.229, 0.0112458, NaN, NaN, NaN, 0.0335714, "- N/A -   "
6.69, 182.701, 0.0112625, NaN, NaN, NaN, 0.0323506, "- N/A -   "
[...]
13.75, 421.36, 0.0230137, NaN, NaN, NaN, 0.0396753, "- N/A -   "
13.96, 429.726, 0.02337192, NaN, NaN, NaN, 0.0372337, "- N/A -   "
14.17, 438.0913, 0.0237301, NaN, NaN, NaN, 0.0323506, "- N/A -   "
14.38, 445.632, 0.0240606, NaN, NaN, NaN, 0.04089605, "- N/A -   "
14.59, 454.116, 0.0244132, NaN, NaN, NaN, 0.0396753, "- N/A -   "
14.8, 463.07, 0.02479084, NaN, NaN, NaN, 0.0274675, "- N/A -   "
15.01, 470.847, 0.0251185, NaN, NaN, NaN, 0.0372337, "- N/A -   "
15.22, 478.7413, 0.0254517, NaN, NaN, NaN, 0.0445584, "- N/A -   "
15.43, 488.05, 0.0258349, NaN, NaN, NaN, 0.0299091, "- N/A -   "
15.64, 496.2974, 0.0261709, NaN, NaN, NaN, 0.03601294, "- N/A -   "
15.85, 504.192, 0.0264985, NaN, NaN, NaN, 0.04577916, "- N/A -   "
16.06, 513.6183, 0.02688451, NaN, NaN, NaN, 0.0299091, "- N/A -   "
16.27, 522.1345, 0.0272344, NaN, NaN, NaN, 0.03112983, "- N/A -   "
16.48, 530.1776, 0.027562, NaN, NaN, NaN, 0.0396753, "- N/A -   "
16.69, 538.93, 0.0279175, NaN, NaN, NaN, 0.0384545, "- N/A -   "
16.9, 547.801, 0.0282729, NaN, NaN, NaN, 0.0347922, "- N/A -   "
17.11, 556.3177, 0.02862, NaN, NaN, NaN, 0.03601294, "- N/A -   "
17.32, 564.8339, 0.02895597, NaN, NaN, NaN, 0.0433376, "- N/A -   "
17.53, 574.06, 0.0293281, NaN, NaN, NaN, 0.0335714, "- N/A -   "
17.74, 582.576, 0.0296751, NaN, NaN, NaN, 0.0347922, "- N/A -   "
17.95, 590.974, 0.0300056, NaN, NaN, NaN, 0.0433376, "- N/A -   "
18.16, 600.5547, 0.0303888, NaN, NaN, NaN, 0.0299091, "- N/A -   "
18.37, 609.0709, 0.0307248, NaN, NaN, NaN, 0.03601294, "- N/A -   "
18.58, 617.2323, 0.0310552, NaN, NaN, NaN, 0.0433376, "- N/A -   "
18.79, 627.1679, 0.03144394, NaN, NaN, NaN, 0.0274675, "- N/A -   "
19, 635.684, 0.03177437, NaN, NaN, NaN, 0.03601294, "- N/A -   "
19.21, 644.082, 0.03210758, NaN, NaN, NaN, 0.04211683, "- N/A -   "
19.42, 653.781, 0.03247689, NaN, NaN, NaN, 0.0335714, "- N/A -   "
19.63, 662.5339, 0.03281843, NaN, NaN, NaN, 0.0372337, "- N/A -   "
19.84, 671.2866, 0.0331627, NaN, NaN, NaN, 0.0396753, "- N/A -   "
20.05, 680.6308, 0.03352095, NaN, NaN, NaN, 0.03601294, "- N/A -   "
20.26, 689.857, 0.03387915, NaN, NaN, NaN, 0.0323506, "- N/A -   "
20.47, 698.846, 0.0342262, NaN, NaN, NaN, 0.0347922, "- N/A -   "
20.68, 707.3623, 0.0345539, NaN, NaN, NaN, 0.0445584, "- N/A -   "
20.89, 717.061, 0.0349232, NaN, NaN, NaN, 0.0347922, "- N/A -   "
21.1, 726.5238, 0.0352842, NaN, NaN, NaN, 0.0299091, "- N/A -   "
21.31, 734.4486, 0.0355924, NaN, NaN, NaN, 0.0482207, "- N/A -   "
21.52, 744.6208, 0.0359784, NaN, NaN, NaN, 0.0323506, "- N/A -   "
21.73, 754.0832, 0.03633935, NaN, NaN, NaN, 0.0299091, "- N/A -   "
21.94, 762.245, 0.0366531, NaN, NaN, NaN, 0.0445584, "- N/A -   "
22.15, 772.0619, 0.0370224, NaN, NaN, NaN, 0.03601294, "- N/A -   "
22.36, 781.4061, 0.0373779, NaN, NaN, NaN, 0.0335714, "- N/A -   "
22.57, 790.1589, 0.0377111, NaN, NaN, NaN, 0.04089605, "- N/A -   "
22.78, 799.9762, 0.0380748, NaN, NaN, NaN, 0.0347922, "- N/A -   "
22.99, 809.2021, 0.0384247, NaN, NaN, NaN, 0.0347922, "- N/A -   "
23.2, 818.191, 0.0387662, NaN, NaN, NaN, 0.0384545, "- N/A -   "
23.41, 827.417, 0.0391133, NaN, NaN, NaN, 0.0396753, "- N/A -   "
23.62, 837.1164, 0.0394743, NaN, NaN, NaN, 0.0347922, "- N/A -   "
23.83, 846.224, 0.0398214, NaN, NaN, NaN, 0.0372337, "- N/A -   "
24.04, 855.0951, 0.04016016, NaN, NaN, NaN, 0.04089605, "- N/A -   "
24.25, 865.2672, 0.0405322, NaN, NaN, NaN, 0.03112983, "- N/A -   "
24.46, 874.848, 0.0408932, NaN, NaN, NaN, 0.0262467, "- N/A -   "
24.67, 882.8911, 0.0412014, NaN, NaN, NaN, 0.04577916, "- N/A -   "
24.88, 892.7084, 0.0415708, NaN, NaN, NaN, 0.03601294, "- N/A -   "
25.09, 902.5257, 0.04194006, NaN, NaN, NaN, 0.0286883, "- N/A -   "
25.3, 910.6871, 0.04225383, NaN, NaN, NaN, 0.0445584, "- N/A -   "
25.51, 920.2678, 0.04261203, NaN, NaN, NaN, 0.0396753, "- N/A -   "
25.72, 930.44, 0.04299245, NaN, NaN, NaN, 0.0274675, "- N/A -   "
25.93, 939.311, 0.04332288, NaN, NaN, NaN, 0.0347922, "- N/A -   "
26.14, 948.064, 0.04365609, NaN, NaN, NaN, 0.0433376, "- N/A -   "
26.35, 958.1177, 0.0440226, NaN, NaN, NaN, 0.03601294, "- N/A -   "
26.56, 967.344, 0.04437249, NaN, NaN, NaN, 0.03601294, "- N/A -   "
26.77, 976.5695, 0.044714, NaN, NaN, NaN, 0.0396753, "- N/A -   "
26.98, 986.032, 0.04506946, NaN, NaN, NaN, 0.0372337, "- N/A -   "
27.19, 995.9675, 0.04542766, NaN, NaN, NaN, 0.0335714, "- N/A -   "
27.4, 1004.72, 0.04576087, NaN, NaN, NaN, 0.04089605, "- N/A -   "
27.61, 1014.55, 0.0461163, NaN, NaN, NaN, 0.0396753, "- N/A -   "
27.82, 1024.21, 0.0464745, NaN, NaN, NaN, 0.03601294, "- N/A -   "
28.03, 1033.39, 0.046816, NaN, NaN, NaN, 0.0396753, "- N/A -   "
28.24, 1043.05, 0.0471659, NaN, NaN, NaN, 0.0384545, "- N/A -   "
28.45, 1053.19, 0.0475352, NaN, NaN, NaN, 0.03112983, "- N/A -   "
28.66, 1062.13, 0.04786565, NaN, NaN, NaN, 0.0384545, "- N/A -   "
28.87, 1071.31, 0.0482016, NaN, NaN, NaN, 0.0445584, "- N/A -   "
29.08, 1082.05, 0.0485876, NaN, NaN, NaN, 0.0286883, "- N/A -   "
29.29, 1091.23, 0.0489208, NaN, NaN, NaN, 0.03601294, "- N/A -   "
29.5, 1100.41, 0.049254, NaN, NaN, NaN, 0.0433376, "- N/A -   "
29.71, 1111.03, 0.0496372, NaN, NaN, NaN, 0.0299091, "- N/A -   "
29.92, 1120.446, 0.04998153, NaN, NaN, NaN, 0.03112983, "- N/A -   "
30.13, 1129.51, 0.05030919, NaN, NaN, NaN, 0.04211683, "- N/A -   "
30.34, 1139.53, 0.05067017, NaN, NaN, NaN, 0.03601294, "- N/A -   "
30.55, 1149.07, 0.05102, NaN, NaN, NaN, 0.03601294, "- N/A -   "
30.76, 1158.61, 0.0513671, NaN, NaN, NaN, 0.0372337, "- N/A -   "
30.97, 1168.15, 0.0517142, NaN, NaN, NaN, 0.04089605, "- N/A -   "
31.18, 1178.164, 0.0520808, NaN, NaN, NaN, 0.0335714, "- N/A -   "
31.39, 1187.7, 0.0524251, NaN, NaN, NaN, 0.0347922, "- N/A -   "
31.6, 1196.65, 0.0527555, NaN, NaN, NaN, 0.0433376, "- N/A -   "
31.81, 1206.9, 0.0531304, NaN, NaN, NaN, 0.0323506, "- N/A -   "
32.02, 1216.32, 0.0534747, NaN, NaN, NaN, 0.0347922, "- N/A -   "
32.23, 1225.39, 0.0538079, NaN, NaN, NaN, 0.04211683, "- N/A -   "
32.44, 1236, 0.05418831, NaN, NaN, NaN, 0.0286883, "- N/A -   "
32.65, 1245.06, 0.0545243, NaN, NaN, NaN, 0.03601294, "- N/A -   "
32.86, 1254.13, 0.0548547, NaN, NaN, NaN, 0.0445584, "- N/A -   "
33.07, 1264.26, 0.055224, NaN, NaN, NaN, 0.0347922, "- N/A -   "
33.28, 1273.68, 0.05557669, NaN, NaN, NaN, 0.0335714, "- N/A -   "
33.49, 1282.87, 0.0559099, NaN, NaN, NaN, 0.04089605, "- N/A -   "
33.7, 1292.65, 0.05627088, NaN, NaN, NaN, 0.03601294, "- N/A -   "
33.91, 1302.42, 0.0566319, NaN, NaN, NaN, 0.0323506, "- N/A -   "
34.12, 1311.96, 0.0569817, NaN, NaN, NaN, 0.0323506, "- N/A -   "
34.33, 1320.55, 0.0572983, NaN, NaN, NaN, 0.04577916, "- N/A -   "
34.54, 1330.93, 0.05767869, NaN, NaN, NaN, 0.0323506, "- N/A -   "
34.75, 1340.59, 0.05803134, NaN, NaN, NaN, 0.03112983, "- N/A -   "
34.96, 1348.93, 0.05834511, NaN, NaN, NaN, 0.04699994, "- N/A -   "
35.17, 1359.67, 0.0587311, NaN, NaN, NaN, 0.03112983, "- N/A -   "
35.38, 1369.32, 0.0590865, NaN, NaN, NaN, 0.0299091, "- N/A -   "
35.59, 1377.79, 0.05940305, NaN, NaN, NaN, 0.04577916, "- N/A -   "
35.8, 1387.81, 0.0597668, NaN, NaN, NaN, 0.0384545, "- N/A -   "
36.01, 1397.71, 0.0601278, NaN, NaN, NaN, 0.0335714, "- N/A -   "
36.22, 1406.77, 0.06046655, NaN, NaN, NaN, 0.0396753, "- N/A -   "
36.43, 1416.43, 0.0608247, NaN, NaN, NaN, 0.0347922, "- N/A -   "
36.64, 1425.85, 0.0611718, NaN, NaN, NaN, 0.03601294, "- N/A -   "
36.85, 1435.39, 0.0615189, NaN, NaN, NaN, 0.0384545, "- N/A -   "
37.06, 1444.45, 0.0618577, NaN, NaN, NaN, 0.04211683, "- N/A -   "
37.27, 1454.35, 0.0622215, NaN, NaN, NaN, 0.03601294, "- N/A -   "
37.48, 1463.77, 0.06257688, NaN, NaN, NaN, 0.0347922, "- N/A -   "
37.69, 1472.95, 0.06291287, NaN, NaN, NaN, 0.0396753, "- N/A -   "
37.9, 1482.972, 0.06328218, NaN, NaN, NaN, 0.0323506, "- N/A -   "
38.11, 1492.63, 0.0636376, NaN, NaN, NaN, 0.0299091, "- N/A -   "
38.32, 1500.86, 0.0639514, NaN, NaN, NaN, 0.0445584, "- N/A -   "
38.53, 1511, 0.0643235, NaN, NaN, NaN, 0.0347922, "- N/A -   "
38.74, 1520.89, 0.06468999, NaN, NaN, NaN, 0.0274675, "- N/A -   "
38.95, 1529.12, 0.06500376, NaN, NaN, NaN, 0.0433376, "- N/A -   "
39.16, 1538.782, 0.06536196, NaN, NaN, NaN, 0.0396753, "- N/A -   "
39.37, 1548.8, 0.06573404, NaN, NaN, NaN, 0.03112983, "- N/A -   "
39.58, 1557.98, 0.06607281, NaN, NaN, NaN, 0.0347922, "- N/A -   "
39.79, 1567.164, 0.0664088, NaN, NaN, NaN, 0.04211683, "- N/A -   "
40, 1576.82, 0.06676977, NaN, NaN, NaN, 0.0372337, "- N/A -   "
40.21, 1586.48, 0.06712798, NaN, NaN, NaN, 0.0335714, "- N/A -   "
40.42, 1595.78, 0.06746674, NaN, NaN, NaN, 0.0384545, "- N/A -   "
40.63, 1605.32, 0.06781939, NaN, NaN, NaN, 0.0372337, "- N/A -   "
40.774, 1612, 0.0680665, NaN, NaN, NaN, 0.0347922, "- N/A -   "