File: 2_Tensile_Data/Hamel_ForceTest_Bolt9_Test1.csv
Time, Load (lb), Position (in), AxialStrain (in), TransverseStrain (in), Auxiliary (), Control Out (V), Stress (psi)
0.0,1.06153,0.0, NaN, NaN, NaN,0.09216871," ""- N/A -   """
0.00999999,1.17947,2.49908e-05, NaN, NaN, NaN,0.0897272," ""- N/A -   """
0.06,1.53332,0.0001388376, NaN, NaN, NaN,0.0762986," ""- N/A -   """
0.11,2.005107,0.0002471309, NaN, NaN, NaN,0.0653116," ""- N/A -   """
0.16,2.35895,0.000349871, NaN, NaN, NaN,0.0555454," ""- N/A -   """
0.21,2.83074,0.000449834, NaN, NaN, NaN,0.0482207," ""- N/A -   """
0.26,3.18458,0.0005553504, NaN, NaN, NaN,0.0384545," ""- N/A -   """
0.31,3.774319,0.000655313, NaN, NaN, NaN,0.03112983," ""- N/A -   """
0.36,4.246109,0.0007413927, NaN, NaN, NaN,0.03112983," ""- N/A -   """
0.41,4.83585,0.0008191418, NaN, NaN, NaN,0.0323506," ""- N/A -   """
0.46,5.425584,0.000899668, NaN, NaN, NaN,0.0335714," ""- N/A -   """
0.51,6.01532,0.0009801934, NaN, NaN, NaN,0.0347922," ""- N/A -   """
0.56,6.487111,0.00106072, NaN, NaN, NaN,0.03601294," ""- N/A -   """
0.61,7.07685,0.00113847, NaN, NaN, NaN,0.0384545," ""- N/A -   """
0.66,7.548638,0.00121344, NaN, NaN, NaN,0.04211683," ""- N/A -   """
0.71,8.138375,0.00128564, NaN, NaN, NaN,0.04699994," ""- N/A -   """
0.76,8.728113,0.00136616, NaN, NaN, NaN,0.0482207," ""- N/A -   """
0.81,9.435798,0.00145779, NaN, NaN, NaN,0.0445584," ""- N/A -   """
0.86,10.26143,0.00156053, NaN, NaN, NaN,0.03601294," ""- N/A -   """
0.91,10.9691,0.00165772, NaN, NaN, NaN,0.0299091," ""- N/A -   """
0.96,11.7947,0.00174658, NaN, NaN, NaN,0.0286883," ""- N/A -   """
1.01,12.5024,0.00182433, NaN, NaN, NaN,0.0299091," ""- N/A -   """
1.06,13.3281,0.00189652, NaN, NaN, NaN,0.0347922," ""- N/A -   """
1.11,14.1537,0.00197705, NaN, NaN, NaN,0.03601294," ""- N/A -   """
1.16,15.2152,0.00206868, NaN, NaN, NaN,0.0323506," ""- N/A -   """
1.21,16.1588,0.00215476, NaN, NaN, NaN,0.03112983," ""- N/A -   """
1.26,17.1024,0.00222973, NaN, NaN, NaN,0.0347922," ""- N/A -   """
1.31,17.928,0.00230193, NaN, NaN, NaN,0.04089605," ""- N/A -   """
1.36,18.9895,0.0023769, NaN, NaN, NaN,0.0433376," ""- N/A -   """
1.41,20.169,0.00246576, NaN, NaN, NaN,0.04089605," ""- N/A -   """
1.46,21.1126,0.002551835, NaN, NaN, NaN,0.04089605," ""- N/A -   """
1.51,22.528,0.00264069, NaN, NaN, NaN,0.0372337," ""- N/A -   """
1.56,23.5895,0.00272399, NaN, NaN, NaN,0.0372337," ""- N/A -   """
1.61,24.769,0.002807296, NaN, NaN, NaN,0.0372337," ""- N/A -   """
1.66,25.9484,0.0028906, NaN, NaN, NaN,0.0372337," ""- N/A -   """
1.71,27.2459,0.00297945, NaN, NaN, NaN,0.0347922," ""- N/A -   """
1.76,28.54329,0.003065534, NaN, NaN, NaN,0.0335714," ""- N/A -   """
1.81,29.6048,0.00314606, NaN, NaN, NaN,0.0347922," ""- N/A -   """
1.86,31.1381,0.003234916, NaN, NaN, NaN,0.0335714," ""- N/A -   """
1.91,32.1997,0.003312665, NaN, NaN, NaN,0.0347922," ""- N/A -   """
1.96,33.49708,0.00340152, NaN, NaN, NaN,0.0323506," ""- N/A -   """
2.01,34.9125,0.00347927, NaN, NaN, NaN,0.0347922," ""- N/A -   """
2.06,36.0919,0.00355424, NaN, NaN, NaN,0.0384545," ""- N/A -   """
2.11,37.15345,0.00362921, NaN, NaN, NaN,0.04211683," ""- N/A -   """
2.16,38.4509,0.00370696, NaN, NaN, NaN,0.0445584," ""- N/A -   """
2.21,39.8662,0.003793043, NaN, NaN, NaN,0.0445584," ""- N/A -   """
2.26,41.51751,0.003884676, NaN, NaN, NaN,0.0396753," ""- N/A -   """
2.31,43.2867,0.00398742, NaN, NaN, NaN,0.03112983," ""- N/A -   """
2.36,44.70209,0.00407072, NaN, NaN, NaN,0.03112983," ""- N/A -   """
2.41,45.8816,0.004148467, NaN, NaN, NaN,0.0335714," ""- N/A -   """
2.46,47.2969,0.00422899, NaN, NaN, NaN,0.0347922," ""- N/A -   """
2.51,48.9482,0.00432063, NaN, NaN, NaN,0.03112983," ""- N/A -   """
2.56,50.4815,0.004409482, NaN, NaN, NaN,0.0286883," ""- N/A -   """
2.61,51.7789,0.00449001, NaN, NaN, NaN,0.0299091," ""- N/A -   """
2.66,53.19431,0.0045622, NaN, NaN, NaN,0.0347922," ""- N/A -   """
2.71,54.3738,0.004631622, NaN, NaN, NaN,0.04089605," ""- N/A -   """
2.76,55.6712,0.004709371, NaN, NaN, NaN,0.0445584," ""- N/A -   """
2.81,57.08658,0.00478712, NaN, NaN, NaN,0.04577916," ""- N/A -   """
2.86,58.6199,0.004875976, NaN, NaN, NaN,0.0433376," ""- N/A -   """
2.91,60.5071,0.004975939, NaN, NaN, NaN,0.0372337," ""- N/A -   """
2.96,62.0404,0.00506202, NaN, NaN, NaN,0.0347922," ""- N/A -   """
3.01,63.5737,0.005145321, NaN, NaN, NaN,0.0347922," ""- N/A -   """
3.06,65.22495,0.005234177, NaN, NaN, NaN,0.0335714," ""- N/A -   """
3.11,66.87622,0.00532581, NaN, NaN, NaN,0.0286883," ""- N/A -   """
3.16,68.52748,0.00541189, NaN, NaN, NaN,0.0286883," ""- N/A -   """
3.21,69.94285,0.00549519, NaN, NaN, NaN,0.0274675," ""- N/A -   """
3.26,71.3582,0.00556739, NaN, NaN, NaN,0.0323506," ""- N/A -   """
3.31,72.77359,0.005639583, NaN, NaN, NaN,0.0372337," ""- N/A -   """
3.36,74.071,0.00571456, NaN, NaN, NaN,0.04089605," ""- N/A -   """
3.41,75.48638,0.00579508, NaN, NaN, NaN,0.04211683," ""- N/A -   """
3.46,77.25559,0.00588116, NaN, NaN, NaN,0.04089605," ""- N/A -   """
3.51,78.78891,0.005964463, NaN, NaN, NaN,0.04211683," ""- N/A -   """
3.56,80.32223,0.006042212, NaN, NaN, NaN,0.0445584," ""- N/A -   """
3.61,82.09144,0.006131068, NaN, NaN, NaN,0.04211683," ""- N/A -   """
3.66,84.09654,0.006233808, NaN, NaN, NaN,0.0347922," ""- N/A -   """
3.71,85.86576,0.006322664, NaN, NaN, NaN,0.0323506," ""- N/A -   """
3.76,87.63497,0.006408743, NaN, NaN, NaN,0.0299091," ""- N/A -   """
3.81,89.28623,0.006489269, NaN, NaN, NaN,0.03112983," ""- N/A -   """
3.86,90.70161,0.006561465, NaN, NaN, NaN,0.0372337," ""- N/A -   """
3.91,92.47082,0.00664477, NaN, NaN, NaN,0.0372337," ""- N/A -   """
3.96,94.35797,0.00673085, NaN, NaN, NaN,0.0347922," ""- N/A -   """
4.01,96.12719,0.006816926, NaN, NaN, NaN,0.0347922," ""- N/A -   """
4.06,97.54256,0.00688634, NaN, NaN, NaN,0.0396753," ""- N/A -   """
4.11,99.1938,0.00696132, NaN, NaN, NaN,0.0445584," ""- N/A -   """
4.16,100.963,0.00704184, NaN, NaN, NaN,0.0445584," ""- N/A -   """
4.21,102.85,0.00712792, NaN, NaN, NaN,0.0433376," ""- N/A -   """
4.26,105.091,0.00722789, NaN, NaN, NaN,0.03601294," ""- N/A -   """
4.31,107.214,0.007319518, NaN, NaN, NaN,0.0323506," ""- N/A -   """
4.36,108.983,0.0074056, NaN, NaN, NaN,0.03112983," ""- N/A -   """
4.41,110.753,0.00748335, NaN, NaN, NaN,0.0335714," ""- N/A -   """
4.46,112.404,0.0075611, NaN, NaN, NaN,0.03601294," ""- N/A -   """
4.51,114.173,0.0076444, NaN, NaN, NaN,0.03601294," ""- N/A -   """
4.56,116.178,0.00773325, NaN, NaN, NaN,0.0347922," ""- N/A -   """
4.61,118.183,0.007819333, NaN, NaN, NaN,0.0323506," ""- N/A -   """
4.66,119.717,0.00789431, NaN, NaN, NaN,0.03601294," ""- N/A -   """
4.71,121.604,0.007974831, NaN, NaN, NaN,0.0372337," ""- N/A -   """
4.76,123.137,0.008047027, NaN, NaN, NaN,0.04211683," ""- N/A -   """
4.81,125.142,0.008135883, NaN, NaN, NaN,0.0396753," ""- N/A -   """
4.86,127.029,0.008219185, NaN, NaN, NaN,0.04089605," ""- N/A -   """
4.91,128.799,0.008302488, NaN, NaN, NaN,0.0396753," ""- N/A -   """
4.96,130.804,0.008388568, NaN, NaN, NaN,0.0384545," ""- N/A -   """
5.01,132.6909,0.00847187, NaN, NaN, NaN,0.0384545," ""- N/A -   """
5.06,134.578,0.008557949, NaN, NaN, NaN,0.0372337," ""- N/A -   """
5.11,136.583,0.008649582, NaN, NaN, NaN,0.0347922," ""- N/A -   """
5.16,138.588,0.008741215, NaN, NaN, NaN,0.03112983," ""- N/A -   """
5.21,140.357,0.008818964, NaN, NaN, NaN,0.0323506," ""- N/A -   """
5.26,142.1267,0.008899489, NaN, NaN, NaN,0.0347922," ""- N/A -   """
5.31,143.778,0.008980015, NaN, NaN, NaN,0.0347922," ""- N/A -   """
5.36,145.901,0.009066095, NaN, NaN, NaN,0.0335714," ""- N/A -   """
5.41,147.67,0.00914662, NaN, NaN, NaN,0.0347922," ""- N/A -   """
5.46,149.204,0.009218816, NaN, NaN, NaN,0.0396753," ""- N/A -   """
5.51,150.973,0.009299342, NaN, NaN, NaN,0.04089605," ""- N/A -   """
5.56,152.624,0.009377091, NaN, NaN, NaN,0.0433376," ""- N/A -   """
5.61,154.629,0.009463171, NaN, NaN, NaN,0.04211683," ""- N/A -   """
5.66,156.634,0.009554803, NaN, NaN, NaN,0.0384545," ""- N/A -   """
5.71,158.639,0.00964921, NaN, NaN, NaN,0.0335714," ""- N/A -   """
5.76,160.409,0.009735292, NaN, NaN, NaN,0.0323506," ""- N/A -   """
5.81,162.178,0.009815818, NaN, NaN, NaN,0.0347922," ""- N/A -   """
5.86,163.947,0.009899121, NaN, NaN, NaN,0.0347922," ""- N/A -   """
5.91,165.7162,0.0099852, NaN, NaN, NaN,0.0323506," ""- N/A -   """
5.96,167.485,0.0100741, NaN, NaN, NaN,0.0299091," ""- N/A -   """
6.01,169.137,0.0101546, NaN, NaN, NaN,0.0323506," ""- N/A -   """
6.06,170.552,0.0102296, NaN, NaN, NaN,0.0347922," ""- N/A -   """
6.11,171.9674,0.0103017, NaN, NaN, NaN,0.0396753," ""- N/A -   """
6.16,173.383,0.0103739, NaN, NaN, NaN,0.0445584," ""- N/A -   """
6.21,175.034,0.01045447, NaN, NaN, NaN,0.04577916," ""- N/A -   """
6.26,176.803,0.0105406, NaN, NaN, NaN,0.0445584," ""- N/A -   """
6.31,178.808,0.010635, NaN, NaN, NaN,0.0396753," ""- N/A -   """
6.36,180.578,0.0107238, NaN, NaN, NaN,0.0372337," ""- N/A -   """
6.41,182.229,0.0108154, NaN, NaN, NaN,0.0347922," ""- N/A -   """
6.46,183.8801,0.0109015, NaN, NaN, NaN,0.0323506," ""- N/A -   """
6.51,185.767,0.0109932, NaN, NaN, NaN,0.0286883," ""- N/A -   """
6.56,187.536,0.01107924, NaN, NaN, NaN,0.0274675," ""- N/A -   """
6.61,188.952,0.0111598, NaN, NaN, NaN,0.0286883," ""- N/A -   """
6.66,190.367,0.0112347, NaN, NaN, NaN,0.0323506," ""- N/A -   """
6.71,191.901,0.0113125, NaN, NaN, NaN,0.0347922," ""- N/A -   """
6.76,193.3159,0.0113847, NaN, NaN, NaN,0.0396753," ""- N/A -   """
6.81,194.849,0.0114624, NaN, NaN, NaN,0.04211683," ""- N/A -   """
6.86,196.265,0.0115402, NaN, NaN, NaN,0.04577916," ""- N/A -   """
6.91,197.916,0.0116207, NaN, NaN, NaN,0.04577916," ""- N/A -   """
6.96,199.803,0.01171234, NaN, NaN, NaN,0.04211683," ""- N/A -   """
7.01,201.69,0.0118067, NaN, NaN, NaN,0.0384545," ""- N/A -   """
7.06,203.577,0.0119012, NaN, NaN, NaN,0.0323506," ""- N/A -   """
7.11,205.347,0.0119956, NaN, NaN, NaN,0.0274675," ""- N/A -   """
7.16,206.88,0.0120761, NaN, NaN, NaN,0.0286883," ""- N/A -   """
7.19,207.823,0.0121261, NaN, NaN, NaN,0.0299091," ""- N/A -   """
7.2,208.177,0.01214, NaN, NaN, NaN,0.0299091," ""- N/A -   """
7.21,208.4132,0.01215662, NaN, NaN, NaN,0.03112983," ""- N/A -   """
7.22,208.767,0.01217328, NaN, NaN, NaN,0.03112983," ""- N/A -   """
7.23,209.121,0.0121872, NaN, NaN, NaN,0.03112983," ""- N/A -   """
7.24,209.357,0.012201, NaN, NaN, NaN,0.0323506," ""- N/A -   """
7.25,209.593,0.0122177, NaN, NaN, NaN,0.0323506," ""- N/A -   """
7.26,209.829,0.0122344, NaN, NaN, NaN,0.0335714," ""- N/A -   """
7.27,210.182,0.0122483, NaN, NaN, NaN,0.0335714," ""- N/A -   """
7.28,210.654,0.01226769, NaN, NaN, NaN,0.0335714," ""- N/A -   """
7.29,210.772,0.0122816, NaN, NaN, NaN,0.0335714," ""- N/A -   """
7.3,211.244,0.0122955, NaN, NaN, NaN,0.0347922," ""- N/A -   """
7.31,211.362,0.0123093, NaN, NaN, NaN,0.03601294," ""- N/A -   """
7.32,211.716,0.012326, NaN, NaN, NaN,0.03601294," ""- N/A -   """
7.33,212.07,0.0123399, NaN, NaN, NaN,0.0372337," ""- N/A -   """
7.34,212.305,0.0123565, NaN, NaN, NaN,0.0372337," ""- N/A -   """
7.35,212.6593,0.0123732, NaN, NaN, NaN,0.0372337," ""- N/A -   """
7.36,213.013,0.0123899, NaN, NaN, NaN,0.0372337," ""- N/A -   """
7.37,213.249,0.0124065, NaN, NaN, NaN,0.0372337," ""- N/A -   """
7.38,213.603,0.0124232, NaN, NaN, NaN,0.0372337," ""- N/A -   """
7.39,213.957,0.0124398, NaN, NaN, NaN,0.0372337," ""- N/A -   """
7.4,214.311,0.0124593, NaN, NaN, NaN,0.0372337," ""- N/A -   """
7.41,214.6644,0.0124759, NaN, NaN, NaN,0.03601294," ""- N/A -   """
7.42,214.9,0.0124926, NaN, NaN, NaN,0.03601294," ""- N/A -   """
7.43,215.372,0.0125093, NaN, NaN, NaN,0.03601294," ""- N/A -   """
7.44,215.608,0.0125287, NaN, NaN, NaN,0.03601294," ""- N/A -   """
7.45,215.962,0.0125426, NaN, NaN, NaN,0.0372337," ""- N/A -   """
7.46,216.08,0.0125537, NaN, NaN, NaN,0.0384545," ""- N/A -   """
7.47,216.316,0.0125676, NaN, NaN, NaN,0.0396753," ""- N/A -   """
7.48,216.67,0.01258424, NaN, NaN, NaN,0.0396753," ""- N/A -   """
7.49,216.905,0.0125981, NaN, NaN, NaN,0.04089605," ""- N/A -   """
7.5,217.141,0.012612, NaN, NaN, NaN,0.04211683," ""- N/A -   """
7.51,217.377,0.0126287, NaN, NaN, NaN,0.04211683," ""- N/A -   """
7.52,217.731,0.0126426, NaN, NaN, NaN,0.0433376," ""- N/A -   """
7.53,218.085,0.012662, NaN, NaN, NaN,0.0433376," ""- N/A -   """
7.54,218.321,0.0126759, NaN, NaN, NaN,0.0433376," ""- N/A -   """
7.55,218.6746,0.0126925, NaN, NaN, NaN,0.0445584," ""- N/A -   """
7.56,218.9105,0.0127064, NaN, NaN, NaN,0.0445584," ""- N/A -   """
7.57,219.264,0.0127231, NaN, NaN, NaN,0.0445584," ""- N/A -   """
7.58,219.6182,0.0127397, NaN, NaN, NaN,0.0445584," ""- N/A -   """
7.59,219.972,0.0127564, NaN, NaN, NaN,0.0445584," ""- N/A -   """
7.6,220.208,0.0127731, NaN, NaN, NaN,0.0445584," ""- N/A -   """
7.61,220.562,0.0127897, NaN, NaN, NaN,0.0445584," ""- N/A -   """
7.62,221.034,0.0128119, NaN, NaN, NaN,0.04211683," ""- N/A -   """
7.63,221.505,0.01283137, NaN, NaN, NaN,0.04211683," ""- N/A -   """
7.64,221.741,0.0128508, NaN, NaN, NaN,0.0396753," ""- N/A -   """
7.65,222.213,0.0128702, NaN, NaN, NaN,0.0396753," ""- N/A -   """
7.66,222.567,0.0128869, NaN, NaN, NaN,0.0384545," ""- N/A -   """
7.67,222.803,0.0129063, NaN, NaN, NaN,0.0372337," ""- N/A -   """
7.68,223.275,0.01292578, NaN, NaN, NaN,0.0372337," ""- N/A -   """
7.69,223.6284,0.0129452, NaN, NaN, NaN,0.03601294," ""- N/A -   """
7.7,223.982,0.0129619, NaN, NaN, NaN,0.0347922," ""- N/A -   """
7.71,224.336,0.0129813, NaN, NaN, NaN,0.0335714," ""- N/A -   """
7.72,224.69,0.012998, NaN, NaN, NaN,0.0335714," ""- N/A -   """
7.73,225.044,0.0130174, NaN, NaN, NaN,0.0323506," ""- N/A -   """
7.74,225.398,0.01303685, NaN, NaN, NaN,0.0323506," ""- N/A -   """
7.75,225.751,0.0130563, NaN, NaN, NaN,0.03112983," ""- N/A -   """
7.76,226.1053,0.0130729, NaN, NaN, NaN,0.0299091," ""- N/A -   """
7.77,226.577,0.0130924, NaN, NaN, NaN,0.0286883," ""- N/A -   """
7.78,226.813,0.013109, NaN, NaN, NaN,0.0286883," ""- N/A -   """
7.79,227.049,0.0131257, NaN, NaN, NaN,0.0286883," ""- N/A -   """
7.8,227.403,0.0131424, NaN, NaN, NaN,0.0286883," ""- N/A -   """
7.81,227.639,0.013159, NaN, NaN, NaN,0.0286883," ""- N/A -   """
7.82,227.992,0.0131757, NaN, NaN, NaN,0.0299091," ""- N/A -   """
7.83,228.228,0.0131896, NaN, NaN, NaN,0.0299091," ""- N/A -   """
7.84,228.5822,0.0132062, NaN, NaN, NaN,0.03112983," ""- N/A -   """
7.85,228.818,0.0132201, NaN, NaN, NaN,0.03112983," ""- N/A -   """
7.86,229.172,0.013234, NaN, NaN, NaN,0.0323506," ""- N/A -   """
7.87,229.408,0.01325066, NaN, NaN, NaN,0.0323506," ""- N/A -   """
7.88,229.762,0.0132673, NaN, NaN, NaN,0.0323506," ""- N/A -   """
7.89,230.116,0.013284, NaN, NaN, NaN,0.0323506," ""- N/A -   """
7.9,230.351,0.0133006, NaN, NaN, NaN,0.0323506," ""- N/A -   """
7.91,230.705,0.0133173, NaN, NaN, NaN,0.0335714," ""- N/A -   """
7.92,231.0591,0.013334, NaN, NaN, NaN,0.0323506," ""- N/A -   """
7.93,231.413,0.0133506, NaN, NaN, NaN,0.0323506," ""- N/A -   """
7.94,231.885,0.0133673, NaN, NaN, NaN,0.0323506," ""- N/A -   """
7.95,232.121,0.0133839, NaN, NaN, NaN,0.0323506," ""- N/A -   """
7.96,232.357,0.0134034, NaN, NaN, NaN,0.0323506," ""- N/A -   """
7.97,232.71,0.01342, NaN, NaN, NaN,0.0323506," ""- N/A -   """
7.98,233.0642,0.0134367, NaN, NaN, NaN,0.03112983," ""- N/A -   """
7.99,233.418,0.0134534, NaN, NaN, NaN,0.03112983," ""- N/A -   """
8,233.772,0.01347, NaN, NaN, NaN,0.03112983," ""- N/A -   """
8.01,234.008,0.0134839, NaN, NaN, NaN,0.0335714," ""- N/A -   """
8.12,237.3103,0.0136561, NaN, NaN, NaN,0.0384545," ""- N/A -   """
8.23,240.731,0.0138338, NaN, NaN, NaN,0.04089605," ""- N/A -   """
8.34,244.621,0.0140254, NaN, NaN, NaN,0.0372337," ""- N/A -   """
8.45,248.3913,0.01421697, NaN, NaN, NaN,0.0347922," ""- N/A -   """
8.56,251.926,0.014403, NaN, NaN, NaN,0.0323506," ""- N/A -   """
8.67,255.343,0.0145807, NaN, NaN, NaN,0.03601294," ""- N/A -   """
8.78,258.996,0.014764, NaN, NaN, NaN,0.0347922," ""- N/A -   """
8.89,262.4126,0.0149361, NaN, NaN, NaN,0.0396753," ""- N/A -   """
9,265.83,0.0151083, NaN, NaN, NaN,0.04577916," ""- N/A -   """
9.11,270.071,0.01531934, NaN, NaN, NaN,0.0323506," ""- N/A -   """
9.22,273.488,0.0154971, NaN, NaN, NaN,0.0347922," ""- N/A -   """
9.33,277.2587,0.0156886, NaN, NaN, NaN,0.03112983," ""- N/A -   """
9.44,280.558,0.0158553, NaN, NaN, NaN,0.0384545," ""- N/A -   """
9.55,283.857,0.0160219, NaN, NaN, NaN,0.04577916," ""- N/A -   """
9.66,287.6274,0.0162079, NaN, NaN, NaN,0.0445584," ""- N/A -   """
9.77,291.987,0.0164189, NaN, NaN, NaN,0.0335714," ""- N/A -   """
9.88,295.7574,0.016605, NaN, NaN, NaN,0.03112983," ""- N/A -   """
9.99,299.528,0.016791, NaN, NaN, NaN,0.0299091," ""- N/A -   """
10.1,303.18,0.01696873, NaN, NaN, NaN,0.0323506," ""- N/A -   """
10.21,306.2439,0.017127, NaN, NaN, NaN,0.0433376," ""- N/A -   """
10.32,309.8965,0.0173075, NaN, NaN, NaN,0.0445584," ""- N/A -   """
10.43,313.9026,0.0175019, NaN, NaN, NaN,0.0396753," ""- N/A -   """
10.54,318.498,0.0177101, NaN, NaN, NaN,0.0286883," ""- N/A -   """
10.65,322.15,0.0178934, NaN, NaN, NaN,0.0299091," ""- N/A -   """
10.76,325.567,0.0180655, NaN, NaN, NaN,0.0335714," ""- N/A -   """
10.87,329.102,0.0182377, NaN, NaN, NaN,0.0384545," ""- N/A -   """
10.98,332.637,0.0184099, NaN, NaN, NaN,0.0433376," ""- N/A -   """
11.09,337.232,0.0186098, NaN, NaN, NaN,0.03601294," ""- N/A -   """
11.2,341.238,0.0188097, NaN, NaN, NaN,0.0299091," ""- N/A -   """
11.31,344.773,0.0189763, NaN, NaN, NaN,0.03601294," ""- N/A -   """
11.42,348.6613,0.0191596, NaN, NaN, NaN,0.0372337," ""- N/A -   """
11.53,352.196,0.0193373, NaN, NaN, NaN,0.0396753," ""- N/A -   """
11.64,356.202,0.01951779, NaN, NaN, NaN,0.0396753," ""- N/A -   """
11.75,360.4439,0.0197122, NaN, NaN, NaN,0.0347922," ""- N/A -   """
11.86,364.332,0.01989265, NaN, NaN, NaN,0.03601294," ""- N/A -   """
11.97,368.338,0.020087, NaN, NaN, NaN,0.0323506," ""- N/A -   """
12.08,372.344,0.0202731, NaN, NaN, NaN,0.03112983," ""- N/A -   """
12.19,376.2326,0.02045633, NaN, NaN, NaN,0.0299091," ""- N/A -   """
12.3,379.7674,0.02062016, NaN, NaN, NaN,0.0384545," ""- N/A -   """
12.41,383.42,0.0207923, NaN, NaN, NaN,0.0433376," ""- N/A -   """
12.52,388.0152,0.0209922, NaN, NaN, NaN,0.03601294," ""- N/A -   """
12.63,392.139,0.0211838, NaN, NaN, NaN,0.0347922," ""- N/A -   """
12.74,396.145,0.02136433, NaN, NaN, NaN,0.0347922," ""- N/A -   """
12.85,400.269,0.0215559, NaN, NaN, NaN,0.0323506," ""- N/A -   """
12.96,403.568,0.0217114, NaN, NaN, NaN,0.0433376," ""- N/A -   """
13.07,407.574,0.0218891, NaN, NaN, NaN,0.04577916," ""- N/A -   """
13.18,412.052,0.0220918, NaN, NaN, NaN,0.0372337," ""- N/A -   """
13.29,416.4113,0.0222834, NaN, NaN, NaN,0.0335714," ""- N/A -   """
13.4,420.8887,0.0224806, NaN, NaN, NaN,0.0286883," ""- N/A -   """
13.51,424.659,0.0226555, NaN, NaN, NaN,0.03112983," ""- N/A -   """
13.62,427.958,0.022811, NaN, NaN, NaN,0.0433376," ""- N/A -   """
13.73,432.2,0.0229943, NaN, NaN, NaN,0.0433376," ""- N/A -   """
13.84,436.442,0.0231831, NaN, NaN, NaN,0.04089605," ""- N/A -   """
13.95,441.2726,0.0233914, NaN, NaN, NaN,0.0299091," ""- N/A -   """
14.06,445.279,0.02356907, NaN, NaN, NaN,0.0323506," ""- N/A -   """
14.17,449.167,0.0237385, NaN, NaN, NaN,0.0384545," ""- N/A -   """
14.28,453.173,0.0239162, NaN, NaN, NaN,0.04089605," ""- N/A -   """
14.39,457.297,0.0240939, NaN, NaN, NaN,0.0445584," ""- N/A -   """
14.5,462.246,0.0243021, NaN, NaN, NaN,0.0323506," ""- N/A -   """
14.61,466.4874,0.02449373, NaN, NaN, NaN,0.0286883," ""- N/A -   """
14.72,470.376,0.0246659, NaN, NaN, NaN,0.0335714," ""- N/A -   """
14.83,474.382,0.0248436, NaN, NaN, NaN,0.0372337," ""- N/A -   """
14.94,478.506,0.0250185, NaN, NaN, NaN,0.0396753," ""- N/A -   """
15.05,482.63,0.02519347, NaN, NaN, NaN,0.0445584," ""- N/A -   """
15.16,487.343,0.0254017, NaN, NaN, NaN,0.0335714," ""- N/A -   """
15.27,491.3487,0.0255822, NaN, NaN, NaN,0.0347922," ""- N/A -   """
15.38,496.062,0.0257683, NaN, NaN, NaN,0.0323506," ""- N/A -   """
15.49,500.068,0.025946, NaN, NaN, NaN,0.0347922," ""- N/A -   """
15.6,504.192,0.0261292, NaN, NaN, NaN,0.0347922," ""- N/A -   """
15.71,508.316,0.02630417, NaN, NaN, NaN,0.0396753," ""- N/A -   """
15.82,512.4396,0.0264791, NaN, NaN, NaN,0.0433376," ""- N/A -   """
15.93,517.285,0.0266818, NaN, NaN, NaN,0.0347922," ""- N/A -   """
16.04,521.4248,0.0268651, NaN, NaN, NaN,0.0335714," ""- N/A -   """
16.15,525.9195,0.0270539, NaN, NaN, NaN,0.0323506," ""- N/A -   """
16.26,530.4142,0.0272399, NaN, NaN, NaN,0.0299091," ""- N/A -   """
16.37,533.9626,0.02740099, NaN, NaN, NaN,0.04089605," ""- N/A -   """
16.48,537.984,0.0275676, NaN, NaN, NaN,0.04699994," ""- N/A -   """
16.59,543.07,0.0277758, NaN, NaN, NaN,0.0372337," ""- N/A -   """
16.7,547.5649,0.02797022, NaN, NaN, NaN,0.0323506," ""- N/A -   """
16.81,552.296,0.0281618, NaN, NaN, NaN,0.0274675," ""- N/A -   """
16.92,556.1994,0.0283312, NaN, NaN, NaN,0.0347922," ""- N/A -   """
17.03,559.8661,0.0284895, NaN, NaN, NaN,0.0445584," ""- N/A -   """
17.14,564.2425,0.0286755, NaN, NaN, NaN,0.0445584," ""- N/A -   """
17.25,569.092,0.0288727, NaN, NaN, NaN,0.0396753," ""- N/A -   """
17.36,574.2963,0.0290781, NaN, NaN, NaN,0.0286883," ""- N/A -   """
17.47,578.2,0.02925308, NaN, NaN, NaN,0.0323506," ""- N/A -   """
17.58,582.576,0.0294308, NaN, NaN, NaN,0.0347922," ""- N/A -   """
17.69,586.8341,0.0296085, NaN, NaN, NaN,0.0372337," ""- N/A -   """
17.8,590.7374,0.0297723, NaN, NaN, NaN,0.04577916," ""- N/A -   """
17.91,595.9418,0.029975, NaN, NaN, NaN,0.0372337," ""- N/A -   """
18.02,600.5547,0.0301666, NaN, NaN, NaN,0.0335714," ""- N/A -   """
18.13,604.8128,0.0303443, NaN, NaN, NaN,0.0372337," ""- N/A -   """
18.24,609.544,0.03053594, NaN, NaN, NaN,0.0335714," ""- N/A -   """
18.35,613.566,0.0307081, NaN, NaN, NaN,0.0372337," ""- N/A -   """
18.46,617.942,0.030883, NaN, NaN, NaN,0.04089605," ""- N/A -   """
18.57,622.555,0.03107463, NaN, NaN, NaN,0.0384545," ""- N/A -   """
18.68,627.0496,0.0312607, NaN, NaN, NaN,0.0372337," ""- N/A -   """
18.79,632.0174,0.031455, NaN, NaN, NaN,0.03112983," ""- N/A -   """
18.9,636.5121,0.0316383, NaN, NaN, NaN,0.03112983," ""- N/A -   """
19.01,640.7702,0.0318188, NaN, NaN, NaN,0.0323506," ""- N/A -   """
19.12,644.673,0.03197985, NaN, NaN, NaN,0.04211683," ""- N/A -   """
19.23,648.9316,0.032152, NaN, NaN, NaN,0.04699994," ""- N/A -   """
19.34,654.1359,0.03235749, NaN, NaN, NaN,0.0372337," ""- N/A -   """
19.45,659.104,0.0325519, NaN, NaN, NaN,0.0323506," ""- N/A -   """
19.56,663.7167,0.0327407, NaN, NaN, NaN,0.0299091," ""- N/A -   """
19.67,668.093,0.03292117, NaN, NaN, NaN,0.03112983," ""- N/A -   """
19.78,671.76,0.03307667, NaN, NaN, NaN,0.0433376," ""- N/A -   """
19.89,676.1361,0.0332516, NaN, NaN, NaN,0.04699994," ""- N/A -   """
20,681.6953,0.0334626, NaN, NaN, NaN,0.0347922," ""- N/A -   """
20.11,686.4266,0.03365423, NaN, NaN, NaN,0.03112983," ""- N/A -   """
20.22,691.2761,0.0338486, NaN, NaN, NaN,0.0274675," ""- N/A -   """
20.33,695.416,0.034018, NaN, NaN, NaN,0.0323506," ""- N/A -   """
20.44,699.3192,0.03417626, NaN, NaN, NaN,0.0433376," ""- N/A -   """
20.55,703.9321,0.03435675, NaN, NaN, NaN,0.0445584," ""- N/A -   """
20.66,708.7817,0.0345483, NaN, NaN, NaN,0.04089605," ""- N/A -   """
20.77,714.1043,0.0347566, NaN, NaN, NaN,0.0299091," ""- N/A -   """
20.88,718.599,0.03493709, NaN, NaN, NaN,0.03112983," ""- N/A -   """
20.99,723.0936,0.03510925, NaN, NaN, NaN,0.03601294," ""- N/A -   """
21.1,727.5883,0.0352925, NaN, NaN, NaN,0.0372337," ""- N/A -   """
21.21,731.6099,0.0354563, NaN, NaN, NaN,0.0445584," ""- N/A -   """
21.32,737.051,0.0356618, NaN, NaN, NaN,0.03601294," ""- N/A -   """
21.43,742.0186,0.035859, NaN, NaN, NaN,0.0299091," ""- N/A -   """
21.54,746.2767,0.03603113, NaN, NaN, NaN,0.0347922," ""- N/A -   """
21.65,751.2445,0.03621995, NaN, NaN, NaN,0.0323506," ""- N/A -   """
21.76,755.5026,0.0363949, NaN, NaN, NaN,0.03601294," ""- N/A -   """
21.87,759.879,0.0365698, NaN, NaN, NaN,0.0396753," ""- N/A -   """
21.98,764.6102,0.03675031, NaN, NaN, NaN,0.04089605," ""- N/A -   """
22.09,769.578,0.03694191, NaN, NaN, NaN,0.0372337," ""- N/A -   """
22.2,774.191,0.03712795, NaN, NaN, NaN,0.03601294," ""- N/A -   """
22.31,778.804,0.03731399, NaN, NaN, NaN,0.03601294," ""- N/A -   """
22.42,783.6535,0.0375, NaN, NaN, NaN,0.0335714," ""- N/A -   """
22.53,787.675,0.0376694, NaN, NaN, NaN,0.0396753," ""- N/A -   """
22.64,792.288,0.0378444, NaN, NaN, NaN,0.0433376," ""- N/A -   """
22.75,797.6106,0.0380526, NaN, NaN, NaN,0.0323506," ""- N/A -   """
22.86,802.2236,0.0382331, NaN, NaN, NaN,0.0335714," ""- N/A -   """
22.97,806.8365,0.03841914, NaN, NaN, NaN,0.0323506," ""- N/A -   """
23.08,811.5677,0.0386024, NaN, NaN, NaN,0.0335714," ""- N/A -   """
23.19,815.5893,0.038769, NaN, NaN, NaN,0.04089605," ""- N/A -   """
23.3,820.2023,0.0389467, NaN, NaN, NaN,0.0433376," ""- N/A -   """
23.41,825.0517,0.03913554, NaN, NaN, NaN,0.0396753," ""- N/A -   """
23.52,830.1378,0.0393327, NaN, NaN, NaN,0.0335714," ""- N/A -   """
23.63,834.869,0.0395215, NaN, NaN, NaN,0.03112983," ""- N/A -   """
23.74,839.482,0.039702, NaN, NaN, NaN,0.0323506," ""- N/A -   """
23.791,841.2562,0.03977697, NaN, NaN, NaN,0.0372337," ""- N/A -   """