File: 2_Tensile_Data/Hamel_ForceTest_Bolt8_Test11.csv
Time, Load (lb), Position (in), AxialStrain (in), TransverseStrain (in), Auxiliary (), Control Out (V), Stress (psi)
0.0, 14.3896, 0.0, NaN, NaN, NaN, -0.007935055, "- N/A -   "
0.01, 14.5075, 0.0, NaN, NaN, NaN, -6.103888E-4, "- N/A -   "
0.02, 14.3896, 0.0, NaN, NaN, NaN, 0.01037661, "- N/A -   "
0.03, 14.5075, 2.776752E-6, NaN, NaN, NaN, 0.0286883, "- N/A -   "
0.04, 14.6255, 8.330256E-6, NaN, NaN, NaN, 0.04577916, "- N/A -   "
0.05, 14.7434, 1.94373e-05, NaN, NaN, NaN, 0.0604285, "- N/A -   "
0.06, 15.0973, 3.60978e-05, NaN, NaN, NaN, 0.07385705, "- N/A -   "
0.07, 15.4511, 5.5535e-05, NaN, NaN, NaN, 0.08362327, "- N/A -   "
0.08, 16.0409, 8.05258E-5, NaN, NaN, NaN, 0.09216871, "- N/A -   "
0.09, 16.5126, 0.00011107, NaN, NaN, NaN, 0.0982726, "- N/A -   "
0.1, 17.1024, 0.000141614, NaN, NaN, NaN, 0.101935, "- N/A -   "
0.11, 17.6921, 0.000174935, NaN, NaN, NaN, 0.095831, "- N/A -   "
0.12, 18.3998, 0.000202703, NaN, NaN, NaN, 0.0897272, "- N/A -   "
0.13, 18.8716, 0.000233247, NaN, NaN, NaN, 0.084844, "- N/A -   "
0.14, 19.3434, 2.582379E-4, NaN, NaN, NaN, 0.08118171, "- N/A -   "
0.15, 19.8152, 0.000286005, NaN, NaN, NaN, 0.0762986, "- N/A -   "
0.16, 20.169, 0.000308219, NaN, NaN, NaN, 0.07263627, "- N/A -   "
0.17, 20.6408, 0.000330433, NaN, NaN, NaN, 0.07141549, "- N/A -   "
0.18, 20.99465, 0.000349871, NaN, NaN, NaN, 0.0701947, "- N/A -   "
0.19, 21.46644, 3.69308E-4, NaN, NaN, NaN, 0.06775316, "- N/A -   "
0.2, 21.7023, 0.000391522, NaN, NaN, NaN, 0.06653238, "- N/A -   "
0.21, 22.1741, 0.000410959, NaN, NaN, NaN, 0.0653116, "- N/A -   "
0.22, 22.528, 0.000430397, NaN, NaN, NaN, 0.06287005, "- N/A -   "
0.23, 22.88181, 0.000449834, NaN, NaN, NaN, 0.06164927, "- N/A -   "
0.24, 23.2357, 0.000469271, NaN, NaN, NaN, 0.0604285, "- N/A -   "
0.25, 23.5895, 4.887083E-4, NaN, NaN, NaN, 0.0604285, "- N/A -   "
0.26, 23.9433, 5.053688E-4, NaN, NaN, NaN, 0.0592077, "- N/A -   "
0.27, 24.4151, 5.248061E-4, NaN, NaN, NaN, 0.0579869, "- N/A -   "
0.28, 24.65102, 5.414666E-4, NaN, NaN, NaN, 0.0579869, "- N/A -   "
0.29, 25.0049, 5.636806E-4, NaN, NaN, NaN, 0.0555454, "- N/A -   "
0.3, 25.3587, 5.831179E-4, NaN, NaN, NaN, 0.0555454, "- N/A -   "
0.31, 25.7125, 0.000602555, NaN, NaN, NaN, 0.0543246, "- N/A -   "
0.32, 26.0664, 6.219924E-4, NaN, NaN, NaN, 0.0531038, "- N/A -   "
0.33, 26.5382, 6.414297E-4, NaN, NaN, NaN, 0.05066227, "- N/A -   "
0.34, 27.01, 6.608669E-4, NaN, NaN, NaN, 0.0494415, "- N/A -   "
0.35, 27.3638, 6.803042E-4, NaN, NaN, NaN, 0.0482207, "- N/A -   "
0.36, 27.5997, 6.969647E-4, NaN, NaN, NaN, 0.0482207, "- N/A -   "
0.37, 28.0715, 7.136252E-4, NaN, NaN, NaN, 0.0482207, "- N/A -   "
0.38, 28.1894, 7.302857E-4, NaN, NaN, NaN, 0.0482207, "- N/A -   "
0.39, 28.54329, 7.49723E-4, NaN, NaN, NaN, 0.04699994, "- N/A -   "
0.4, 29.0151, 7.691603E-4, NaN, NaN, NaN, 0.04577916, "- N/A -   "
0.41, 29.251, 7.885975E-4, NaN, NaN, NaN, 0.0445584, "- N/A -   "
0.42, 29.7228, 8.080348E-4, NaN, NaN, NaN, 0.0445584, "- N/A -   "
0.49, 32.08171, 9.385421E-4, NaN, NaN, NaN, 0.0384545, "- N/A -   "
0.56, 34.6766, 0.00106905, NaN, NaN, NaN, 0.03112983, "- N/A -   "
0.63, 36.79961, 0.00118845, NaN, NaN, NaN, 0.03112983, "- N/A -   "
0.7, 38.8047, 0.001296743, NaN, NaN, NaN, 0.0335714, "- N/A -   "
0.77, 40.69188, 0.00140226, NaN, NaN, NaN, 0.0384545, "- N/A -   "
0.84, 42.697, 0.001510553, NaN, NaN, NaN, 0.0433376, "- N/A -   "
0.91, 44.93799, 0.0016244, NaN, NaN, NaN, 0.0445584, "- N/A -   "
0.98, 47.179, 0.00174102, NaN, NaN, NaN, 0.0433376, "- N/A -   "
1.05, 49.6559, 0.00187153, NaN, NaN, NaN, 0.0372337, "- N/A -   "
1.12, 52.36868, 0.00201037, NaN, NaN, NaN, 0.0274675, "- N/A -   "
1.19, 54.8456, 0.00212977, NaN, NaN, NaN, 0.0262467, "- N/A -   "
1.26, 56.85068, 0.00223529, NaN, NaN, NaN, 0.03112983, "- N/A -   "
1.33, 58.9737, 0.00234358, NaN, NaN, NaN, 0.03601294, "- N/A -   "
1.4, 60.97884, 0.00245187, NaN, NaN, NaN, 0.0384545, "- N/A -   "
1.47, 63.33779, 0.0025685, NaN, NaN, NaN, 0.0396753, "- N/A -   "
1.54, 65.4608, 0.00267401, NaN, NaN, NaN, 0.0433376, "- N/A -   "
1.61, 67.70185, 0.00278786, NaN, NaN, NaN, 0.0445584, "- N/A -   "
1.68, 70.29669, 0.002918366, NaN, NaN, NaN, 0.0384545, "- N/A -   "
1.75, 72.77359, 0.00304332, NaN, NaN, NaN, 0.03601294, "- N/A -   "
1.82, 75.13254, 0.003165497, NaN, NaN, NaN, 0.0323506, "- N/A -   "
1.89, 77.37354, 0.00327657, NaN, NaN, NaN, 0.0347922, "- N/A -   "
1.96, 79.61454, 0.00338764, NaN, NaN, NaN, 0.0372337, "- N/A -   "
2.03, 82.20939, 0.00351259, NaN, NaN, NaN, 0.0335714, "- N/A -   "
2.1, 84.56834, 0.00362921, NaN, NaN, NaN, 0.0335714, "- N/A -   "
2.17, 86.57345, 0.00373473, NaN, NaN, NaN, 0.0384545, "- N/A -   "
2.24, 89.05035, 0.00384858, NaN, NaN, NaN, 0.0396753, "- N/A -   "
2.31, 91.40929, 0.003965202, NaN, NaN, NaN, 0.0396753, "- N/A -   "
2.38, 94.0041, 0.00409016, NaN, NaN, NaN, 0.03601294, "- N/A -   "
2.45, 96.481, 0.00420956, NaN, NaN, NaN, 0.0347922, "- N/A -   "
2.52, 98.83998, 0.004328956, NaN, NaN, NaN, 0.0347922, "- N/A -   "
2.59, 101.435, 0.004451133, NaN, NaN, NaN, 0.03112983, "- N/A -   "
2.66, 103.794, 0.0045622, NaN, NaN, NaN, 0.0335714, "- N/A -   "
2.73, 106.035, 0.00467605, NaN, NaN, NaN, 0.03601294, "- N/A -   "
2.8, 108.512, 0.004792674, NaN, NaN, NaN, 0.0347922, "- N/A -   "
2.87, 110.871, 0.00490097, NaN, NaN, NaN, 0.0384545, "- N/A -   "
2.94, 113.23, 0.005017591, NaN, NaN, NaN, 0.0396753, "- N/A -   "
3.01, 115.471, 0.005123107, NaN, NaN, NaN, 0.0433376, "- N/A -   "
3.08, 118.065, 0.00524806, NaN, NaN, NaN, 0.0396753, "- N/A -   "
3.15, 120.66, 0.005373015, NaN, NaN, NaN, 0.0372337, "- N/A -   "
3.22, 123.373, 0.00549519, NaN, NaN, NaN, 0.0335714, "- N/A -   "
3.29, 125.614, 0.00561182, NaN, NaN, NaN, 0.0347922, "- N/A -   "
3.36, 128.091, 0.00573122, NaN, NaN, NaN, 0.0323506, "- N/A -   "
3.43, 130.568, 0.00585062, NaN, NaN, NaN, 0.03112983, "- N/A -   "
3.5, 132.809, 0.00596169, NaN, NaN, NaN, 0.0335714, "- N/A -   "
3.57, 134.696, 0.00605887, NaN, NaN, NaN, 0.04211683, "- N/A -   "
3.64, 136.937, 0.006167166, NaN, NaN, NaN, 0.04699994, "- N/A -   "
3.71, 139.414, 0.006294897, NaN, NaN, NaN, 0.0433376, "- N/A -   "
3.78, 142.3626, 0.006425404, NaN, NaN, NaN, 0.03601294, "- N/A -   "
3.85, 144.8395, 0.006547581, NaN, NaN, NaN, 0.0335714, "- N/A -   "
3.92, 147.434, 0.006672535, NaN, NaN, NaN, 0.0299091, "- N/A -   "
3.99, 149.911, 0.006794712, NaN, NaN, NaN, 0.0274675, "- N/A -   "
4.06, 152.152, 0.006905782, NaN, NaN, NaN, 0.0299091, "- N/A -   "
4.13, 154.2753, 0.0070113, NaN, NaN, NaN, 0.0347922, "- N/A -   "
4.2, 156.2804, 0.00711126, NaN, NaN, NaN, 0.04211683, "- N/A -   "
4.27, 158.639, 0.00722233, NaN, NaN, NaN, 0.0445584, "- N/A -   "
4.34, 160.998, 0.00733896, NaN, NaN, NaN, 0.0445584, "- N/A -   "
4.41, 163.593, 0.00746113, NaN, NaN, NaN, 0.0433376, "- N/A -   "
4.48, 166.306, 0.007588863, NaN, NaN, NaN, 0.0372337, "- N/A -   "
4.55, 169.019, 0.00771937, NaN, NaN, NaN, 0.0323506, "- N/A -   "
4.62, 171.614, 0.007841548, NaN, NaN, NaN, 0.0286883, "- N/A -   "
4.69, 173.737, 0.007947064, NaN, NaN, NaN, 0.0335714, "- N/A -   "
4.76, 175.978, 0.008055357, NaN, NaN, NaN, 0.0372337, "- N/A -   "
4.83, 178.455, 0.00817476, NaN, NaN, NaN, 0.03601294, "- N/A -   "
4.9, 180.696, 0.008283051, NaN, NaN, NaN, 0.0396753, "- N/A -   "
4.97, 182.937, 0.008391344, NaN, NaN, NaN, 0.0433376, "- N/A -   "
5.04, 185.295, 0.008510744, NaN, NaN, NaN, 0.0433376, "- N/A -   "
5.11, 188.1262, 0.008641252, NaN, NaN, NaN, 0.03601294, "- N/A -   "
5.18, 190.721, 0.008771759, NaN, NaN, NaN, 0.03112983, "- N/A -   "
5.25, 193.08, 0.00888283, NaN, NaN, NaN, 0.0323506, "- N/A -   "
5.32, 195.321, 0.008993899, NaN, NaN, NaN, 0.0347922, "- N/A -   "
5.39, 197.68, 0.009116077, NaN, NaN, NaN, 0.0335714, "- N/A -   "
5.46, 200.039, 0.0092327, NaN, NaN, NaN, 0.0323506, "- N/A -   "
5.53, 202.162, 0.009338217, NaN, NaN, NaN, 0.0372337, "- N/A -   "
5.6, 204.167, 0.009440957, NaN, NaN, NaN, 0.0433376, "- N/A -   "
5.67, 206.526, 0.009560357, NaN, NaN, NaN, 0.0433376, "- N/A -   "
5.74, 208.885, 0.00967698, NaN, NaN, NaN, 0.04211683, "- N/A -   "
5.81, 211.598, 0.009807488, NaN, NaN, NaN, 0.03601294, "- N/A -   "
5.88, 213.839, 0.009924112, NaN, NaN, NaN, 0.0372337, "- N/A -   "
5.95, 215.962, 0.010038, NaN, NaN, NaN, 0.0372337, "- N/A -   "
6.02, 218.793, 0.0101657, NaN, NaN, NaN, 0.0323506, "- N/A -   "
6.09, 220.916, 0.0102795, NaN, NaN, NaN, 0.0335714, "- N/A -   "
6.16, 223.039, 0.0103934, NaN, NaN, NaN, 0.03601294, "- N/A -   "
6.23, 225.398, 0.0105156, NaN, NaN, NaN, 0.0335714, "- N/A -   "
6.3, 227.521, 0.0106183, NaN, NaN, NaN, 0.0384545, "- N/A -   "
6.37, 229.88, 0.0107321, NaN, NaN, NaN, 0.04089605, "- N/A -   "
6.44, 232.121, 0.0108404, NaN, NaN, NaN, 0.0433376, "- N/A -   "
6.51, 234.598, 0.01096817, NaN, NaN, NaN, 0.0384545, "- N/A -   "
6.58, 237.3103, 0.0111042, NaN, NaN, NaN, 0.03112983, "- N/A -   "
6.65, 239.551, 0.0112153, NaN, NaN, NaN, 0.0323506, "- N/A -   "
6.72, 241.91, 0.0113319, NaN, NaN, NaN, 0.0323506, "- N/A -   "
6.79, 244.621, 0.0114624, NaN, NaN, NaN, 0.0262467, "- N/A -   "
6.86, 246.742, 0.0115707, NaN, NaN, NaN, 0.03112983, "- N/A -   "
6.93, 248.745, 0.0116707, NaN, NaN, NaN, 0.0372337, "- N/A -   "
7, 250.748, 0.0117707, NaN, NaN, NaN, 0.0445584, "- N/A -   "
7.07, 252.987, 0.0118845, NaN, NaN, NaN, 0.04577916, "- N/A -   "
7.14, 255.697, 0.0120122, NaN, NaN, NaN, 0.04089605, "- N/A -   "
7.21, 258.2887, 0.0121372, NaN, NaN, NaN, 0.0372337, "- N/A -   "
7.28, 260.763, 0.0122594, NaN, NaN, NaN, 0.0347922, "- N/A -   "
7.35, 263.355, 0.01238709, NaN, NaN, NaN, 0.03112983, "- N/A -   "
7.42, 266.065, 0.0125093, NaN, NaN, NaN, 0.0274675, "- N/A -   "
7.49, 268.304, 0.0126203, NaN, NaN, NaN, 0.0299091, "- N/A -   "
7.56, 270.425, 0.0127231, NaN, NaN, NaN, 0.03601294, "- N/A -   "
7.63, 272.428, 0.0128258, NaN, NaN, NaN, 0.04211683, "- N/A -   "
7.7, 275.02, 0.0129452, NaN, NaN, NaN, 0.04211683, "- N/A -   "
7.77, 277.377, 0.0130591, NaN, NaN, NaN, 0.04211683, "- N/A -   "
7.84, 280.087, 0.013184, NaN, NaN, NaN, 0.0396753, "- N/A -   "
7.91, 282.7965, 0.0133173, NaN, NaN, NaN, 0.0323506, "- N/A -   "
7.98, 285.5065, 0.0134423, NaN, NaN, NaN, 0.0274675, "- N/A -   "
8.05, 287.863, 0.0135533, NaN, NaN, NaN, 0.0299091, "- N/A -   "
8.12, 289.984, 0.0136616, NaN, NaN, NaN, 0.0335714, "- N/A -   "
8.19, 292.458, 0.0137727, NaN, NaN, NaN, 0.0372337, "- N/A -   "
8.26, 295.05, 0.01389209, NaN, NaN, NaN, 0.0372337, "- N/A -   "
8.33, 297.1713, 0.0139948, NaN, NaN, NaN, 0.04211683, "- N/A -   "
8.4, 299.41, 0.0141059, NaN, NaN, NaN, 0.0445584, "- N/A -   "
8.47, 302.0022, 0.0142253, NaN, NaN, NaN, 0.0445584, "- N/A -   "
8.54, 305.066, 0.0143614, NaN, NaN, NaN, 0.03601294, "- N/A -   "
8.61, 307.658, 0.0144891, NaN, NaN, NaN, 0.03112983, "- N/A -   "
8.68, 309.8965, 0.0145974, NaN, NaN, NaN, 0.0335714, "- N/A -   "
8.75, 312.253, 0.0147057, NaN, NaN, NaN, 0.0384545, "- N/A -   "
8.82, 314.963, 0.0148306, NaN, NaN, NaN, 0.0335714, "- N/A -   "
8.89, 317.4374, 0.01495, NaN, NaN, NaN, 0.0323506, "- N/A -   "
8.96, 319.558, 0.0150528, NaN, NaN, NaN, 0.0396753, "- N/A -   "
9.03, 321.915, 0.0151666, NaN, NaN, NaN, 0.0396753, "- N/A -   "
9.1, 324.625, 0.015286, NaN, NaN, NaN, 0.0384545, "- N/A -   "
9.17, 327.099, 0.0154054, NaN, NaN, NaN, 0.0384545, "- N/A -   "
9.24, 329.6913, 0.0155248, NaN, NaN, NaN, 0.03601294, "- N/A -   "
9.31, 332.283, 0.015647, NaN, NaN, NaN, 0.0335714, "- N/A -   "
9.38, 334.64, 0.0157608, NaN, NaN, NaN, 0.0347922, "- N/A -   "
9.45, 337.114, 0.0158802, NaN, NaN, NaN, 0.0335714, "- N/A -   "
9.49, 338.6461, 0.01594411, NaN, NaN, NaN, 0.0347922, "- N/A -   "
9.5, 339, 0.01596077, NaN, NaN, NaN, 0.0347922, "- N/A -   "
9.51, 339.353, 0.0159774, NaN, NaN, NaN, 0.0347922, "- N/A -   "
9.54, 340.413, 0.0160246, NaN, NaN, NaN, 0.03601294, "- N/A -   "
9.57, 341.3561, 0.0160746, NaN, NaN, NaN, 0.0372337, "- N/A -   "
9.6, 342.417, 0.0161246, NaN, NaN, NaN, 0.03601294, "- N/A -   "
9.63, 343.5948, 0.01617458, NaN, NaN, NaN, 0.03601294, "- N/A -   "
9.66, 344.4196, 0.0162218, NaN, NaN, NaN, 0.0372337, "- N/A -   "
9.69, 345.362, 0.0162662, NaN, NaN, NaN, 0.04089605, "- N/A -   "
9.72, 346.4226, 0.0163162, NaN, NaN, NaN, 0.04089605, "- N/A -   "
9.75, 347.483, 0.0163662, NaN, NaN, NaN, 0.0396753, "- N/A -   "
9.78, 348.5435, 0.01641338, NaN, NaN, NaN, 0.04089605, "- N/A -   "
9.81, 349.6039, 0.0164606, NaN, NaN, NaN, 0.0433376, "- N/A -   "
9.84, 350.664, 0.01650779, NaN, NaN, NaN, 0.0433376, "- N/A -   "
9.87, 351.7248, 0.0165578, NaN, NaN, NaN, 0.0433376, "- N/A -   "
9.9, 352.903, 0.01661053, NaN, NaN, NaN, 0.0433376, "- N/A -   "
9.93, 354.199, 0.0166716, NaN, NaN, NaN, 0.0384545, "- N/A -   "
9.96, 355.4952, 0.01672993, NaN, NaN, NaN, 0.0335714, "- N/A -   "
9.99, 356.673, 0.0167827, NaN, NaN, NaN, 0.0335714, "- N/A -   "
10.02, 357.852, 0.01683267, NaN, NaN, NaN, 0.0323506, "- N/A -   "
10.05, 358.912, 0.01688265, NaN, NaN, NaN, 0.0323506, "- N/A -   "
10.08, 359.737, 0.0169271, NaN, NaN, NaN, 0.03601294, "- N/A -   "
10.11, 360.7974, 0.0169715, NaN, NaN, NaN, 0.0372337, "- N/A -   "
10.14, 361.858, 0.0170243, NaN, NaN, NaN, 0.03601294, "- N/A -   "
10.17, 363.272, 0.0170826, NaN, NaN, NaN, 0.0323506, "- N/A -   "
10.2, 364.45, 0.01714089, NaN, NaN, NaN, 0.0286883, "- N/A -   "
10.23, 365.628, 0.0171909, NaN, NaN, NaN, 0.0286883, "- N/A -   "
10.26, 366.571, 0.0172381, NaN, NaN, NaN, 0.03112983, "- N/A -   "
10.29, 367.5135, 0.0172825, NaN, NaN, NaN, 0.0335714, "- N/A -   "
10.32, 368.4561, 0.0173242, NaN, NaN, NaN, 0.03601294, "- N/A -   "
10.35, 369.281, 0.0173686, NaN, NaN, NaN, 0.0384545, "- N/A -   "
10.38, 370.223, 0.01741301, NaN, NaN, NaN, 0.04211683, "- N/A -   "
10.41, 371.1661, 0.0174574, NaN, NaN, NaN, 0.0433376, "- N/A -   "
10.44, 372.227, 0.0175046, NaN, NaN, NaN, 0.04577916, "- N/A -   "
10.47, 373.405, 0.0175546, NaN, NaN, NaN, 0.04577916, "- N/A -   "
10.5, 374.583, 0.0176046, NaN, NaN, NaN, 0.0445584, "- N/A -   "
10.53, 375.879, 0.0176601, NaN, NaN, NaN, 0.04211683, "- N/A -   "
10.56, 377.057, 0.0177185, NaN, NaN, NaN, 0.0384545, "- N/A -   "
10.59, 378.236, 0.0177684, NaN, NaN, NaN, 0.0384545, "- N/A -   "
10.62, 379.414, 0.01782397, NaN, NaN, NaN, 0.03601294, "- N/A -   "
10.65, 380.71, 0.01787673, NaN, NaN, NaN, 0.0347922, "- N/A -   "
10.68, 381.77, 0.0179295, NaN, NaN, NaN, 0.0335714, "- N/A -   "
10.71, 382.9487, 0.0179822, NaN, NaN, NaN, 0.0323506, "- N/A -   "
10.74, 384.245, 0.01803778, NaN, NaN, NaN, 0.03112983, "- N/A -   "
10.77, 385.3052, 0.0180905, NaN, NaN, NaN, 0.0286883, "- N/A -   "
10.8, 386.4835, 0.0181405, NaN, NaN, NaN, 0.0286883, "- N/A -   "
10.83, 387.5439, 0.0181905, NaN, NaN, NaN, 0.0286883, "- N/A -   "
10.86, 388.722, 0.0182405, NaN, NaN, NaN, 0.0286883, "- N/A -   "
10.89, 389.783, 0.0182877, NaN, NaN, NaN, 0.0299091, "- N/A -   "
10.92, 390.725, 0.0183349, NaN, NaN, NaN, 0.0323506, "- N/A -   "
10.95, 391.668, 0.0183793, NaN, NaN, NaN, 0.0335714, "- N/A -   "
10.98, 392.61, 0.018421, NaN, NaN, NaN, 0.0372337, "- N/A -   "
11.01, 393.435, 0.0184626, NaN, NaN, NaN, 0.04089605, "- N/A -   "
11.04, 394.3778, 0.0185043, NaN, NaN, NaN, 0.0445584, "- N/A -   "
11.07, 395.438, 0.0185543, NaN, NaN, NaN, 0.04577916, "- N/A -   "
11.1, 396.734, 0.018607, NaN, NaN, NaN, 0.0433376, "- N/A -   "
11.13, 397.9126, 0.018657, NaN, NaN, NaN, 0.0445584, "- N/A -   "
11.16, 398.855, 0.0187042, NaN, NaN, NaN, 0.0445584, "- N/A -   "
11.19, 400.033, 0.01875696, NaN, NaN, NaN, 0.0433376, "- N/A -   "
11.22, 401.33, 0.01880694, NaN, NaN, NaN, 0.0433376, "- N/A -   "
11.25, 402.508, 0.0188625, NaN, NaN, NaN, 0.04089605, "- N/A -   "
11.28, 403.6861, 0.01891801, NaN, NaN, NaN, 0.0384545, "- N/A -   "
11.31, 405.1, 0.0189763, NaN, NaN, NaN, 0.0347922, "- N/A -   "
11.34, 406.3961, 0.01903741, NaN, NaN, NaN, 0.0299091, "- N/A -   "
11.37, 407.692, 0.01909017, NaN, NaN, NaN, 0.0286883, "- N/A -   "
11.4, 408.7526, 0.01914015, NaN, NaN, NaN, 0.0286883, "- N/A -   "
11.43, 409.813, 0.0191901, NaN, NaN, NaN, 0.0286883, "- N/A -   "
11.46, 410.873, 0.0192373, NaN, NaN, NaN, 0.03112983, "- N/A -   "
11.49, 411.934, 0.0192818, NaN, NaN, NaN, 0.0335714, "- N/A -   "
11.52, 412.7587, 0.0193234, NaN, NaN, NaN, 0.03601294, "- N/A -   "
11.55, 414.055, 0.0193734, NaN, NaN, NaN, 0.03601294, "- N/A -   "
11.58, 415.1152, 0.0194262, NaN, NaN, NaN, 0.03601294, "- N/A -   "
11.61, 416.2935, 0.0194761, NaN, NaN, NaN, 0.0347922, "- N/A -   "
11.64, 417.4717, 0.01952612, NaN, NaN, NaN, 0.03601294, "- N/A -   "
11.67, 418.5322, 0.0195733, NaN, NaN, NaN, 0.03601294, "- N/A -   "
11.7, 419.71, 0.0196205, NaN, NaN, NaN, 0.0384545, "- N/A -   "
11.73, 420.535, 0.019665, NaN, NaN, NaN, 0.0396753, "- N/A -   "
11.76, 421.4778, 0.0197094, NaN, NaN, NaN, 0.0433376, "- N/A -   "
11.79, 422.6561, 0.0197538, NaN, NaN, NaN, 0.0445584, "- N/A -   "
11.82, 423.834, 0.0198066, NaN, NaN, NaN, 0.0433376, "- N/A -   "
11.85, 424.8948, 0.0198538, NaN, NaN, NaN, 0.0445584, "- N/A -   "
11.88, 426.1909, 0.0199093, NaN, NaN, NaN, 0.04211683, "- N/A -   "
11.91, 427.487, 0.0199676, NaN, NaN, NaN, 0.0384545, "- N/A -   "
11.94, 428.901, 0.02002871, NaN, NaN, NaN, 0.0347922, "- N/A -   "
11.97, 430.197, 0.0200842, NaN, NaN, NaN, 0.03112983, "- N/A -   "
12, 431.493, 0.0201398, NaN, NaN, NaN, 0.0286883, "- N/A -   "
12.03, 432.6713, 0.0201925, NaN, NaN, NaN, 0.0286883, "- N/A -   "
[...]
30.69, 1243.99, 0.0512866, NaN, NaN, NaN, 0.03112983, "- N/A -   "
30.84, 1250.19, 0.0515143, NaN, NaN, NaN, 0.04089605, "- N/A -   "
30.99, 1256.87, 0.0517559, NaN, NaN, NaN, 0.0445584, "- N/A -   "
31.14, 1264.741, 0.05203633, NaN, NaN, NaN, 0.0323506, "- N/A -   "
31.29, 1271.54, 0.05228346, NaN, NaN, NaN, 0.0323506, "- N/A -   "
31.44, 1278.34, 0.052525, NaN, NaN, NaN, 0.03601294, "- N/A -   "
31.59, 1284.656, 0.0527555, NaN, NaN, NaN, 0.0445584, "- N/A -   "
31.74, 1291.93, 0.0530165, NaN, NaN, NaN, 0.0396753, "- N/A -   "
31.89, 1299.68, 0.0532886, NaN, NaN, NaN, 0.0299091, "- N/A -   "
32.04, 1306, 0.0535163, NaN, NaN, NaN, 0.0396753, "- N/A -   "
32.19, 1313.16, 0.0537718, NaN, NaN, NaN, 0.0372337, "- N/A -   "
32.34, 1319.84, 0.0540106, NaN, NaN, NaN, 0.04211683, "- N/A -   "
32.49, 1327.71, 0.05429105, NaN, NaN, NaN, 0.0299091, "- N/A -   "
32.64, 1334.15, 0.0545243, NaN, NaN, NaN, 0.03601294, "- N/A -   "
32.79, 1341.3, 0.0547798, NaN, NaN, NaN, 0.0335714, "- N/A -   "
32.94, 1347.74, 0.0550158, NaN, NaN, NaN, 0.0396753, "- N/A -   "
33.09, 1355.13, 0.0552712, NaN, NaN, NaN, 0.0372337, "- N/A -   "
33.24, 1362.29, 0.0555295, NaN, NaN, NaN, 0.0347922, "- N/A -   "
33.39, 1369.32, 0.05577661, NaN, NaN, NaN, 0.0347922, "- N/A -   "
33.54, 1376.003, 0.056021, NaN, NaN, NaN, 0.0372337, "- N/A -   "
33.69, 1382.56, 0.05625699, NaN, NaN, NaN, 0.0433376, "- N/A -   "
33.84, 1390.43, 0.0565347, NaN, NaN, NaN, 0.0323506, "- N/A -   "
33.99, 1397.349, 0.0567818, NaN, NaN, NaN, 0.0323506, "- N/A -   "
34.14, 1404.62, 0.05704, NaN, NaN, NaN, 0.0299091, "- N/A -   "
34.29, 1410.586, 0.0572594, NaN, NaN, NaN, 0.04211683, "- N/A -   "
34.44, 1417.622, 0.0575093, NaN, NaN, NaN, 0.04211683, "- N/A -   "
34.59, 1425.25, 0.0577814, NaN, NaN, NaN, 0.0335714, "- N/A -   "
34.74, 1432.53, 0.0580397, NaN, NaN, NaN, 0.0286883, "- N/A -   "
34.89, 1438.73, 0.05826458, NaN, NaN, NaN, 0.0396753, "- N/A -   "
35.04, 1445.53, 0.0585089, NaN, NaN, NaN, 0.04211683, "- N/A -   "
35.19, 1453.04, 0.0587755, NaN, NaN, NaN, 0.0347922, "- N/A -   "
35.34, 1460.43, 0.05903652, NaN, NaN, NaN, 0.03112983, "- N/A -   "
35.49, 1467.11, 0.0592809, NaN, NaN, NaN, 0.0347922, "- N/A -   "
35.64, 1473.31, 0.0595086, NaN, NaN, NaN, 0.0445584, "- N/A -   "
35.79, 1480.71, 0.059764, NaN, NaN, NaN, 0.04211683, "- N/A -   "
35.94, 1488.22, 0.0600306, NaN, NaN, NaN, 0.0335714, "- N/A -   "
36.09, 1494.778, 0.0602722, NaN, NaN, NaN, 0.0372337, "- N/A -   "
36.24, 1501.81, 0.06052208, NaN, NaN, NaN, 0.0372337, "- N/A -   "
36.39, 1508.61, 0.06076366, NaN, NaN, NaN, 0.04089605, "- N/A -   "
36.54, 1515.89, 0.0610219, NaN, NaN, NaN, 0.0372337, "- N/A -   "
36.69, 1523.28, 0.0612857, NaN, NaN, NaN, 0.0323506, "- N/A -   "
36.84, 1530.08, 0.0615328, NaN, NaN, NaN, 0.0323506, "- N/A -   "
36.99, 1536.4, 0.0617661, NaN, NaN, NaN, 0.0396753, "- N/A -   "
37.14, 1543.075, 0.0620021, NaN, NaN, NaN, 0.04577916, "- N/A -   "
37.29, 1550.71, 0.0622742, NaN, NaN, NaN, 0.0372337, "- N/A -   "
37.44, 1557.98, 0.0625297, NaN, NaN, NaN, 0.0335714, "- N/A -   "
37.59, 1564.9, 0.0627824, NaN, NaN, NaN, 0.0335714, "- N/A -   "
37.74, 1570.86, 0.06300172, NaN, NaN, NaN, 0.04577916, "- N/A -   "
37.89, 1578.612, 0.06327662, NaN, NaN, NaN, 0.0347922, "- N/A -   "
38.04, 1586.01, 0.06354041, NaN, NaN, NaN, 0.0299091, "- N/A -   "
38.19, 1592.92, 0.06378754, NaN, NaN, NaN, 0.0299091, "- N/A -   "
38.34, 1598.885, 0.06400968, NaN, NaN, NaN, 0.04211683, "- N/A -   "
38.49, 1605.8, 0.06425404, NaN, NaN, NaN, 0.0445584, "- N/A -   "
38.64, 1613.67, 0.06453171, NaN, NaN, NaN, 0.0335714, "- N/A -   "
38.79, 1620.83, 0.06478439, NaN, NaN, NaN, 0.03112983, "- N/A -   "
38.94, 1627.15, 0.06501764, NaN, NaN, NaN, 0.0384545, "- N/A -   "
39.09, 1633.71, 0.06525367, NaN, NaN, NaN, 0.0445584, "- N/A -   "
39.24, 1641.58, 0.0655341, NaN, NaN, NaN, 0.03112983, "- N/A -   "
39.39, 1648.37, 0.06577847, NaN, NaN, NaN, 0.0335714, "- N/A -   "
39.54, 1655.53, 0.06603394, NaN, NaN, NaN, 0.03112983, "- N/A -   "
39.69, 1661.73, 0.06626163, NaN, NaN, NaN, 0.04089605, "- N/A -   "
39.84, 1668.65, 0.0665115, NaN, NaN, NaN, 0.04211683, "- N/A -   "
39.99, 1675.92, 0.06677255, NaN, NaN, NaN, 0.0384545, "- N/A -   "
40.14, 1682.84, 0.06702246, NaN, NaN, NaN, 0.0372337, "- N/A -   "
40.29, 1689.75, 0.0672751, NaN, NaN, NaN, 0.03601294, "- N/A -   "
40.44, 1696.55, 0.06751949, NaN, NaN, NaN, 0.0384545, "- N/A -   "
40.59, 1703.23, 0.06776385, NaN, NaN, NaN, 0.04211683, "- N/A -   "
40.74, 1710.624, 0.06803042, NaN, NaN, NaN, 0.0347922, "- N/A -   "
40.89, 1717.78, 0.06829143, NaN, NaN, NaN, 0.0286883, "- N/A -   "
41.04, 1724.22, 0.06852468, NaN, NaN, NaN, 0.03601294, "- N/A -   "
41.19, 1730.3, 0.0687496, NaN, NaN, NaN, 0.04699994, "- N/A -   "
41.34, 1737.81, 0.0690245, NaN, NaN, NaN, 0.03601294, "- N/A -   "
41.49, 1745.45, 0.06929939, NaN, NaN, NaN, 0.0250259, "- N/A -   "
41.64, 1751.53, 0.06952154, NaN, NaN, NaN, 0.0372337, "- N/A -   "
41.79, 1757.49, 0.06974645, NaN, NaN, NaN, 0.0482207, "- N/A -   "
41.94, 1764.88, 0.0700158, NaN, NaN, NaN, 0.0396753, "- N/A -   "
42.09, 1772.635, 0.07029902, NaN, NaN, NaN, 0.0250259, "- N/A -   "
42.24, 1778.96, 0.0705295, NaN, NaN, NaN, 0.0335714, "- N/A -   "
42.39, 1785.395, 0.07076552, NaN, NaN, NaN, 0.0396753, "- N/A -   "
42.54, 1791.83, 0.0710043, NaN, NaN, NaN, 0.0445584, "- N/A -   "
42.69, 1799.47, 0.07127922, NaN, NaN, NaN, 0.0335714, "- N/A -   "
42.84, 1805.91, 0.0715208, NaN, NaN, NaN, 0.0372337, "- N/A -   "
42.99, 1813.06, 0.071779, NaN, NaN, NaN, 0.0335714, "- N/A -   "
43.14, 1819.38, 0.07201228, NaN, NaN, NaN, 0.04089605, "- N/A -   "
43.29, 1826.66, 0.07227052, NaN, NaN, NaN, 0.0372337, "- N/A -   "
43.44, 1833.69, 0.07253153, NaN, NaN, NaN, 0.0323506, "- N/A -   "
43.59, 1840.37, 0.0727759, NaN, NaN, NaN, 0.0347922, "- N/A -   "
43.74, 1847.29, 0.07303134, NaN, NaN, NaN, 0.0335714, "- N/A -   "
43.89, 1853.49, 0.07325905, NaN, NaN, NaN, 0.04211683, "- N/A -   "
44.04, 1860.29, 0.07350618, NaN, NaN, NaN, 0.0433376, "- N/A -   "
44.19, 1867.68, 0.0737783, NaN, NaN, NaN, 0.0347922, "- N/A -   "
44.34, 1874.83, 0.07403931, NaN, NaN, NaN, 0.0286883, "- N/A -   "
44.49, 1880.92, 0.07426423, NaN, NaN, NaN, 0.04211683, "- N/A -   "
44.64, 1887.24, 0.0745003, NaN, NaN, NaN, 0.04699994, "- N/A -   "
44.79, 1895.35, 0.07478626, NaN, NaN, NaN, 0.03112983, "- N/A -   "
44.94, 1902.02, 0.07503894, NaN, NaN, NaN, 0.0299091, "- N/A -   "
45.09, 1908.22, 0.07526941, NaN, NaN, NaN, 0.0384545, "- N/A -   "
45.24, 1914.43, 0.07550266, NaN, NaN, NaN, 0.04577916, "- N/A -   "
45.39, 1921.7, 0.07576367, NaN, NaN, NaN, 0.04089605, "- N/A -   "
45.54, 1928.97, 0.07603579, NaN, NaN, NaN, 0.03112983, "- N/A -   "
45.69, 1935.414, 0.07627182, NaN, NaN, NaN, 0.0372337, "- N/A -   "
45.84, 1942.09, 0.0765134, NaN, NaN, NaN, 0.04089605, "- N/A -   "
45.99, 1948.53, 0.07675219, NaN, NaN, NaN, 0.04577916, "- N/A -   "
46.14, 1956.52, 0.077041, NaN, NaN, NaN, 0.0286883, "- N/A -   "
46.29, 1962.72, 0.0772742, NaN, NaN, NaN, 0.03601294, "- N/A -   "
46.44, 1969.88, 0.07753247, NaN, NaN, NaN, 0.0323506, "- N/A -   "
46.59, 1975.72, 0.07775461, NaN, NaN, NaN, 0.0445584, "- N/A -   "
46.74, 1982.757, 0.0780184, NaN, NaN, NaN, 0.0384545, "- N/A -   "
46.89, 1989.67, 0.0782766, NaN, NaN, NaN, 0.03601294, "- N/A -   "
47.04, 1996.83, 0.07853766, NaN, NaN, NaN, 0.0299091, "- N/A -   "
47.19, 2003.03, 0.07877368, NaN, NaN, NaN, 0.0372337, "- N/A -   "
47.34, 2008.87, 0.0790014, NaN, NaN, NaN, 0.04577916, "- N/A -   "
47.49, 2016.51, 0.07927627, NaN, NaN, NaN, 0.0347922, "- N/A -   "
47.64, 2023.54, 0.07953729, NaN, NaN, NaN, 0.03112983, "- N/A -   "
47.79, 2030.1, 0.0797872, NaN, NaN, NaN, 0.0299091, "- N/A -   "
47.94, 2035.347, 0.0799982, NaN, NaN, NaN, 0.04699994, "- N/A -   "
48.09, 2042.62, 0.08026757, NaN, NaN, NaN, 0.0384545, "- N/A -   "
48.24, 2049.538, 0.0805314, NaN, NaN, NaN, 0.0335714, "- N/A -   "
48.39, 2056.34, 0.08078682, NaN, NaN, NaN, 0.0299091, "- N/A -   "
48.54, 2061.94, 0.081009, NaN, NaN, NaN, 0.04211683, "- N/A -   "
48.69, 2068.38, 0.08125887, NaN, NaN, NaN, 0.04211683, "- N/A -   "
48.84, 2075.3, 0.08152544, NaN, NaN, NaN, 0.0347922, "- N/A -   "
48.99, 2082.21, 0.081792, NaN, NaN, NaN, 0.0286883, "- N/A -   "
49.14, 2088.18, 0.08202525, NaN, NaN, NaN, 0.0372337, "- N/A -   "
49.29, 2093.9, 0.0822585, NaN, NaN, NaN, 0.0433376, "- N/A -   "
49.44, 2100.578, 0.08251952, NaN, NaN, NaN, 0.0384545, "- N/A -   "
49.59, 2107.02, 0.0827777, NaN, NaN, NaN, 0.0347922, "- N/A -   "
49.74, 2113.22, 0.08302765, NaN, NaN, NaN, 0.0347922, "- N/A -   "
49.769, 2114.53, 0.08308042, NaN, NaN, NaN, 0.0323506, "- N/A -   "