File: 2_Tensile_Data/Hamel_ForceTest_Bolt8_Test8.csv
Time, Load (lb), Position (in), AxialStrain (in), TransverseStrain (in), Auxiliary (), Control Out (V), Stress (psi)
0.0, 9.671693, 0.0, NaN, NaN, NaN, -0.006714277, "- N/A -   "
0.01, 9.671693, 2.776752E-6, NaN, NaN, NaN, 6.103888E-4, "- N/A -   "
0.02, 9.671693, 2.776752E-6, NaN, NaN, NaN, 0.006714277, "- N/A -   "
0.03, 9.671693, 2.776752E-6, NaN, NaN, NaN, 0.0250259, "- N/A -   "
0.04, 9.78964, 8.330256E-6, NaN, NaN, NaN, 0.04211683, "- N/A -   "
0.05, 9.907588, 1.94373e-05, NaN, NaN, NaN, 0.0579869, "- N/A -   "
0.06, 10.1435, 3.3321e-05, NaN, NaN, NaN, 0.0701947, "- N/A -   "
0.07, 10.26143, 5.5535e-05, NaN, NaN, NaN, 0.0799609, "- N/A -   "
0.08, 10.6153, 8.05258E-5, NaN, NaN, NaN, 0.0897272, "- N/A -   "
0.09, 10.9691, 0.000108293, NaN, NaN, NaN, 0.095831, "- N/A -   "
0.1, 11.4409, 1.388376E-4, NaN, NaN, NaN, 0.09949338, "- N/A -   "
0.11, 11.7947, 0.000172159, NaN, NaN, NaN, 0.09216871, "- N/A -   "
0.12, 12.14859, 0.000202703, NaN, NaN, NaN, 0.0872856, "- N/A -   "
0.13, 12.5024, 0.000227694, NaN, NaN, NaN, 0.08240249, "- N/A -   "
0.14, 12.7383, 0.000255461, NaN, NaN, NaN, 0.07751938, "- N/A -   "
0.15, 13.09217, 0.000280452, NaN, NaN, NaN, 0.07385705, "- N/A -   "
0.16, 13.3281, 3.054427E-4, NaN, NaN, NaN, 0.07141549, "- N/A -   "
0.17, 13.564, 0.00032488, NaN, NaN, NaN, 0.0689739, "- N/A -   "
0.18, 13.9178, 0.000344317, NaN, NaN, NaN, 0.06775316, "- N/A -   "
0.19, 14.0357, 3.637545E-4, NaN, NaN, NaN, 0.06653238, "- N/A -   "
0.2, 14.2716, 0.000383192, NaN, NaN, NaN, 0.0653116, "- N/A -   "
0.21, 14.5075, 0.000399852, NaN, NaN, NaN, 0.0653116, "- N/A -   "
0.22, 14.6255, 4.192895E-4, NaN, NaN, NaN, 0.0640908, "- N/A -   "
0.23, 14.9793, 4.387268E-4, NaN, NaN, NaN, 0.06287005, "- N/A -   "
0.24, 15.0973, 0.000458164, NaN, NaN, NaN, 0.06287005, "- N/A -   "
0.25, 15.3332, 0.000474825, NaN, NaN, NaN, 0.06164927, "- N/A -   "
0.26, 15.5691, 4.942618E-4, NaN, NaN, NaN, 0.0604285, "- N/A -   "
0.27, 15.687, 5.136991E-4, NaN, NaN, NaN, 0.0592077, "- N/A -   "
0.28, 16.0409, 5.359131E-4, NaN, NaN, NaN, 0.05676616, "- N/A -   "
0.29, 16.1588, 5.553504E-4, NaN, NaN, NaN, 0.0555454, "- N/A -   "
0.3, 16.3947, 5.747876E-4, NaN, NaN, NaN, 0.0543246, "- N/A -   "
0.31, 16.74854, 5.942249E-4, NaN, NaN, NaN, 0.0531038, "- N/A -   "
0.32, 16.9844, 6.136621E-4, NaN, NaN, NaN, 0.05188305, "- N/A -   "
0.33, 17.2203, 6.330994E-4, NaN, NaN, NaN, 0.05066227, "- N/A -   "
0.34, 17.3383, 6.525367E-4, NaN, NaN, NaN, 0.0494415, "- N/A -   "
0.35, 17.5742, 6.747507E-4, NaN, NaN, NaN, 0.04699994, "- N/A -   "
0.36, 17.8101, 0.000694188, NaN, NaN, NaN, 0.04577916, "- N/A -   "
0.37, 18.046, 7.136252E-4, NaN, NaN, NaN, 0.0445584, "- N/A -   "
0.38, 18.16391, 0.000733062, NaN, NaN, NaN, 0.0433376, "- N/A -   "
0.39, 18.3998, 7.49723E-4, NaN, NaN, NaN, 0.0433376, "- N/A -   "
0.4, 18.6357, 7.691603E-4, NaN, NaN, NaN, 0.04211683, "- N/A -   "
0.66, 24.0613, 0.0012301, NaN, NaN, NaN, 0.03112983, "- N/A -   "
0.92, 28.7792, 0.00163828, NaN, NaN, NaN, 0.04211683, "- N/A -   "
1.18, 34.3227, 0.002102001, NaN, NaN, NaN, 0.0274675, "- N/A -   "
1.44, 39.2765, 0.00251574, NaN, NaN, NaN, 0.03601294, "- N/A -   "
1.7, 44.70209, 0.00294613, NaN, NaN, NaN, 0.0372337, "- N/A -   "
1.96, 50.0097, 0.003379307, NaN, NaN, NaN, 0.0372337, "- N/A -   "
2.22, 55.3174, 0.00380415, NaN, NaN, NaN, 0.04211683, "- N/A -   "
2.48, 60.97884, 0.00424843, NaN, NaN, NaN, 0.0372337, "- N/A -   "
2.74, 66.87622, 0.004687157, NaN, NaN, NaN, 0.0335714, "- N/A -   "
3, 72.3018, 0.005098116, NaN, NaN, NaN, 0.0433376, "- N/A -   "
3.26, 78.55301, 0.00554795, NaN, NaN, NaN, 0.03601294, "- N/A -   "
3.52, 84.56834, 0.00598112, NaN, NaN, NaN, 0.0372337, "- N/A -   "
3.78, 91.1734, 0.00641152, NaN, NaN, NaN, 0.0384545, "- N/A -   "
4.04, 98.60408, 0.00686413, NaN, NaN, NaN, 0.0299091, "- N/A -   "
4.3, 105.327, 0.00726121, NaN, NaN, NaN, 0.04699994, "- N/A -   "
4.56, 113.465, 0.007730477, NaN, NaN, NaN, 0.03112983, "- N/A -   "
4.82, 120.896, 0.008152544, NaN, NaN, NaN, 0.0347922, "- N/A -   "
5.08, 129.035, 0.008580163, NaN, NaN, NaN, 0.0384545, "- N/A -   "
5.34, 137.8806, 0.00901889, NaN, NaN, NaN, 0.0347922, "- N/A -   "
5.6, 146.3728, 0.009432626, NaN, NaN, NaN, 0.0445584, "- N/A -   "
5.86, 156.0445, 0.009879682, NaN, NaN, NaN, 0.0372337, "- N/A -   "
6.12, 165.126, 0.0103212, NaN, NaN, NaN, 0.0335714, "- N/A -   "
6.38, 173.855, 0.0107349, NaN, NaN, NaN, 0.04211683, "- N/A -   "
6.64, 183.526, 0.0111931, NaN, NaN, NaN, 0.03112983, "- N/A -   "
6.9, 192.372, 0.0116207, NaN, NaN, NaN, 0.0335714, "- N/A -   "
7.16, 200.629, 0.01204, NaN, NaN, NaN, 0.0396753, "- N/A -   "
7.42, 209.711, 0.0124954, NaN, NaN, NaN, 0.03112983, "- N/A -   "
7.68, 217.731, 0.0129063, NaN, NaN, NaN, 0.04089605, "- N/A -   "
7.94, 227.049, 0.0133617, NaN, NaN, NaN, 0.0299091, "- N/A -   "
8.2, 235.423, 0.0137838, NaN, NaN, NaN, 0.03601294, "- N/A -   "
8.46, 243.56, 0.0141948, NaN, NaN, NaN, 0.04577916, "- N/A -   "
8.72, 252.515, 0.0146474, NaN, NaN, NaN, 0.0372337, "- N/A -   "
8.98, 260.9987, 0.015075, NaN, NaN, NaN, 0.0396753, "- N/A -   "
9.24, 269.836, 0.0155137, NaN, NaN, NaN, 0.0372337, "- N/A -   "
9.5, 278.908, 0.015958, NaN, NaN, NaN, 0.0323506, "- N/A -   "
9.76, 287.038, 0.01637173, NaN, NaN, NaN, 0.04089605, "- N/A -   "
10.02, 296.2287, 0.0168188, NaN, NaN, NaN, 0.03601294, "- N/A -   "
10.28, 305.301, 0.01726029, NaN, NaN, NaN, 0.03112983, "- N/A -   "
10.54, 313.4313, 0.0176712, NaN, NaN, NaN, 0.04089605, "- N/A -   "
10.8, 323.093, 0.0181266, NaN, NaN, NaN, 0.0323506, "- N/A -   "
11.06, 331.341, 0.0185348, NaN, NaN, NaN, 0.04211683, "- N/A -   "
11.32, 341.12, 0.0189902, NaN, NaN, NaN, 0.0323506, "- N/A -   "
11.58, 350.075, 0.019415, NaN, NaN, NaN, 0.0372337, "- N/A -   "
11.84, 358.794, 0.01983156, NaN, NaN, NaN, 0.0433376, "- N/A -   "
12.1, 368.9274, 0.0202925, NaN, NaN, NaN, 0.03112983, "- N/A -   "
12.36, 378.0, 0.02071179, NaN, NaN, NaN, 0.0372337, "- N/A -   "
12.62, 387.662, 0.02115052, NaN, NaN, NaN, 0.0347922, "- N/A -   "
12.88, 397.0878, 0.0215837, NaN, NaN, NaN, 0.03601294, "- N/A -   "
13.14, 406.514, 0.0220085, NaN, NaN, NaN, 0.0396753, "- N/A -   "
13.4, 416.883, 0.0224611, NaN, NaN, NaN, 0.0323506, "- N/A -   "
13.66, 426.78, 0.0228999, NaN, NaN, NaN, 0.0286883, "- N/A -   "
13.92, 435.2635, 0.0232886, NaN, NaN, NaN, 0.0482207, "- N/A -   "
14.18, 446.339, 0.0237662, NaN, NaN, NaN, 0.0299091, "- N/A -   "
14.44, 455.1761, 0.02416607, NaN, NaN, NaN, 0.0433376, "- N/A -   "
14.7, 465.309, 0.0246131, NaN, NaN, NaN, 0.0384545, "- N/A -   "
14.96, 475.56, 0.0250546, NaN, NaN, NaN, 0.0335714, "- N/A -   "
15.22, 484.868, 0.0254628, NaN, NaN, NaN, 0.0445584, "- N/A -   "
15.48, 495.708, 0.02592653, NaN, NaN, NaN, 0.03112983, "- N/A -   "
15.74, 505.606, 0.02635415, NaN, NaN, NaN, 0.0335714, "- N/A -   "
16, 515.8656, 0.0267818, NaN, NaN, NaN, 0.0372337, "- N/A -   "
16.26, 526.156, 0.0272233, NaN, NaN, NaN, 0.0323506, "- N/A -   "
16.52, 536.2099, 0.0276509, NaN, NaN, NaN, 0.0347922, "- N/A -   "
16.78, 546.619, 0.0280841, NaN, NaN, NaN, 0.03601294, "- N/A -   "
17.04, 557.3822, 0.0285339, NaN, NaN, NaN, 0.0274675, "- N/A -   "
17.3, 566.7264, 0.0289254, NaN, NaN, NaN, 0.04699994, "- N/A -   "
17.56, 578.2, 0.0293947, NaN, NaN, NaN, 0.03112983, "- N/A -   "
17.82, 588.017, 0.02980843, NaN, NaN, NaN, 0.0396753, "- N/A -   "
18.08, 598.426, 0.0302333, NaN, NaN, NaN, 0.0433376, "- N/A -   "
18.34, 609.544, 0.0306914, NaN, NaN, NaN, 0.0335714, "- N/A -   "
18.6, 619.4797, 0.0310968, NaN, NaN, NaN, 0.0445584, "- N/A -   "
18.86, 631.071, 0.0315606, NaN, NaN, NaN, 0.03112983, "- N/A -   "
19.12, 641.3616, 0.03198818, NaN, NaN, NaN, 0.0347922, "- N/A -   "
19.38, 651.8886, 0.03241025, NaN, NaN, NaN, 0.0384545, "- N/A -   "
19.64, 663.125, 0.0328545, NaN, NaN, NaN, 0.0335714, "- N/A -   "
19.9, 673.534, 0.0332821, NaN, NaN, NaN, 0.0372337, "- N/A -   "
20.16, 684.416, 0.0337125, NaN, NaN, NaN, 0.0372337, "- N/A -   "
20.42, 695.6525, 0.0341652, NaN, NaN, NaN, 0.0286883, "- N/A -   "
20.68, 705.47, 0.03456223, NaN, NaN, NaN, 0.0445584, "- N/A -   "
20.94, 716.943, 0.03502317, NaN, NaN, NaN, 0.0323506, "- N/A -   "
21.2, 727.7066, 0.03545079, NaN, NaN, NaN, 0.0347922, "- N/A -   "
21.46, 737.997, 0.03587008, NaN, NaN, NaN, 0.04211683, "- N/A -   "
21.72, 749.707, 0.0363255, NaN, NaN, NaN, 0.0323506, "- N/A -   "
21.98, 759.9973, 0.03673365, NaN, NaN, NaN, 0.0433376, "- N/A -   "
22.24, 771.8254, 0.03719459, NaN, NaN, NaN, 0.0323506, "- N/A -   "
22.5, 782.5889, 0.0376194, NaN, NaN, NaN, 0.0347922, "- N/A -   "
22.76, 793.2342, 0.0380359, NaN, NaN, NaN, 0.04211683, "- N/A -   "
23.02, 804.707, 0.0384913, NaN, NaN, NaN, 0.0323506, "- N/A -   "
23.28, 815.9441, 0.0389301, NaN, NaN, NaN, 0.0299091, "- N/A -   "
23.54, 825.8797, 0.03932714, NaN, NaN, NaN, 0.04577916, "- N/A -   "
23.8, 837.5895, 0.03977975, NaN, NaN, NaN, 0.0372337, "- N/A -   "
24.06, 848.116, 0.04019904, NaN, NaN, NaN, 0.0445584, "- N/A -   "
24.32, 860.063, 0.04066, NaN, NaN, NaN, 0.03112983, "- N/A -   "
24.58, 871.1813, 0.0410959, NaN, NaN, NaN, 0.0299091, "- N/A -   "
24.84, 881.3534, 0.0414958, NaN, NaN, NaN, 0.0445584, "- N/A -   "
25.1, 893.4181, 0.0419595, NaN, NaN, NaN, 0.03112983, "- N/A -   "
25.36, 904.063, 0.04237601, NaN, NaN, NaN, 0.0396753, "- N/A -   "
25.62, 915.8914, 0.0428258, NaN, NaN, NaN, 0.03112983, "- N/A -   "
25.88, 927.0098, 0.043259, NaN, NaN, NaN, 0.0323506, "- N/A -   "
26.14, 937.655, 0.0436728, NaN, NaN, NaN, 0.04089605, "- N/A -   "
26.4, 949.247, 0.04411148, NaN, NaN, NaN, 0.0384545, "- N/A -   "
26.66, 960.72, 0.04455576, NaN, NaN, NaN, 0.0347922, "- N/A -   "
26.92, 971.3652, 0.04496117, NaN, NaN, NaN, 0.04577916, "- N/A -   "
27.18, 983.548, 0.0454249, NaN, NaN, NaN, 0.0323506, "- N/A -   "
27.44, 994.0751, 0.04583584, NaN, NaN, NaN, 0.04211683, "- N/A -   "
27.7, 1005.9, 0.0462829, NaN, NaN, NaN, 0.0372337, "- N/A -   "
27.96, 1017.53, 0.04672996, NaN, NaN, NaN, 0.03112983, "- N/A -   "
28.22, 1028.145, 0.0471326, NaN, NaN, NaN, 0.0433376, "- N/A -   "
28.48, 1040.19, 0.0475935, NaN, NaN, NaN, 0.03112983, "- N/A -   "
28.74, 1051.64, 0.0480239, NaN, NaN, NaN, 0.0323506, "- N/A -   "
29, 1063.09, 0.0484543, NaN, NaN, NaN, 0.0335714, "- N/A -   "
29.26, 1074.057, 0.04887361, NaN, NaN, NaN, 0.0396753, "- N/A -   "
29.52, 1085.74, 0.04931234, NaN, NaN, NaN, 0.0384545, "- N/A -   "
29.78, 1097.19, 0.04974551, NaN, NaN, NaN, 0.0384545, "- N/A -   "
30.04, 1109.12, 0.05018979, NaN, NaN, NaN, 0.0323506, "- N/A -   "
30.3, 1119.85, 0.050598, NaN, NaN, NaN, 0.0433376, "- N/A -   "
30.56, 1132.01, 0.0510506, NaN, NaN, NaN, 0.03601294, "- N/A -   "
30.82, 1143.46, 0.051481, NaN, NaN, NaN, 0.0384545, "- N/A -   "
31.08, 1155.15, 0.05191693, NaN, NaN, NaN, 0.03601294, "- N/A -   "
31.34, 1167.312, 0.0523695, NaN, NaN, NaN, 0.0286883, "- N/A -   "
31.6, 1177.81, 0.0527666, NaN, NaN, NaN, 0.0445584, "- N/A -   "
31.86, 1190.33, 0.0532303, NaN, NaN, NaN, 0.0299091, "- N/A -   "
32.12, 1201.54, 0.0536468, NaN, NaN, NaN, 0.0384545, "- N/A -   "
32.38, 1213.224, 0.0540772, NaN, NaN, NaN, 0.0384545, "- N/A -   "
32.64, 1224.91, 0.0545187, NaN, NaN, NaN, 0.0347922, "- N/A -   "
32.9, 1236.12, 0.0549353, NaN, NaN, NaN, 0.04211683, "- N/A -   "
33.16, 1248.16, 0.05537954, NaN, NaN, NaN, 0.0372337, "- N/A -   "
33.42, 1259.85, 0.05581549, NaN, NaN, NaN, 0.03601294, "- N/A -   "
33.68, 1271.06, 0.05623478, NaN, NaN, NaN, 0.0433376, "- N/A -   "
33.94, 1283.34, 0.05669017, NaN, NaN, NaN, 0.0323506, "- N/A -   "
34.2, 1294.91, 0.05711779, NaN, NaN, NaN, 0.0347922, "- N/A -   "
34.46, 1306.24, 0.05753708, NaN, NaN, NaN, 0.04089605, "- N/A -   "
34.72, 1318.64, 0.0580008, NaN, NaN, NaN, 0.0286883, "- N/A -   "
34.98, 1329.02, 0.05839787, NaN, NaN, NaN, 0.0433376, "- N/A -   "
35.24, 1341.897, 0.05886714, NaN, NaN, NaN, 0.0274675, "- N/A -   "
35.5, 1353.226, 0.0592892, NaN, NaN, NaN, 0.0347922, "- N/A -   "
35.76, 1364.08, 0.0596946, NaN, NaN, NaN, 0.04577916, "- N/A -   "
36.02, 1376.48, 0.06015, NaN, NaN, NaN, 0.03601294, "- N/A -   "
36.28, 1387.93, 0.0605721, NaN, NaN, NaN, 0.04089605, "- N/A -   "
36.54, 1399.73, 0.06101357, NaN, NaN, NaN, 0.0384545, "- N/A -   "
36.8, 1411.78, 0.06145785, NaN, NaN, NaN, 0.0323506, "- N/A -   "
37.06, 1422.63, 0.06186881, NaN, NaN, NaN, 0.04211683, "- N/A -   "
37.32, 1435.03, 0.0623186, NaN, NaN, NaN, 0.03601294, "- N/A -   "
37.58, 1446.72, 0.06275737, NaN, NaN, NaN, 0.0335714, "- N/A -   "
37.84, 1457.81, 0.06316833, NaN, NaN, NaN, 0.04211683, "- N/A -   "
38.1, 1470.57, 0.06363483, NaN, NaN, NaN, 0.0274675, "- N/A -   "
38.36, 1481.064, 0.06402913, NaN, NaN, NaN, 0.0445584, "- N/A -   "
38.62, 1493.59, 0.0644817, NaN, NaN, NaN, 0.0372337, "- N/A -   "
38.88, 1505.27, 0.0649149, NaN, NaN, NaN, 0.03601294, "- N/A -   "
38.978, 1509.8, 0.06507596, NaN, NaN, NaN, 0.0384545, "- N/A -   "