File: 2_Tensile_Data/Hamel_ForceTest_Bolt6_Test5.csv
Time, Load (lb), Position (in), AxialStrain (in), TransverseStrain (in), Auxiliary (), Control Out (V), Stress (psi)
0.0, 1.53332, 0.0, NaN, NaN, NaN, 0.0982726, "- N/A -   "
0.01, 2.241, 3.054427E-5, NaN, NaN, NaN, 0.105597, "- N/A -   "
0.02, 2.94869, 6.386529E-5, NaN, NaN, NaN, 0.106818, "- N/A -   "
0.03, 3.774319, 9.99631e-05, NaN, NaN, NaN, 0.0982726, "- N/A -   "
0.04, 4.36406, 0.000130507, NaN, NaN, NaN, 0.09094793, "- N/A -   "
0.05, 5.18969, 1.610516E-4, NaN, NaN, NaN, 0.084844, "- N/A -   "
0.06, 5.66148, 0.000191596, NaN, NaN, NaN, 0.0799609, "- N/A -   "
0.07, 6.369163, 2.193634E-4, NaN, NaN, NaN, 0.0750778, "- N/A -   "
0.08, 6.9589, 2.471309E-4, NaN, NaN, NaN, 0.0701947, "- N/A -   "
0.09, 7.430691, 0.000269345, NaN, NaN, NaN, 0.06653238, "- N/A -   "
0.1, 7.90248, 0.000297112, NaN, NaN, NaN, 0.06287005, "- N/A -   "
0.11, 8.492218, 0.000319326, NaN, NaN, NaN, 0.0604285, "- N/A -   "
0.12, 8.964007, 0.00034154, NaN, NaN, NaN, 0.0579869, "- N/A -   "
0.13, 9.435798, 3.637545E-4, NaN, NaN, NaN, 0.0555454, "- N/A -   "
0.14, 9.907588, 3.859685E-4, NaN, NaN, NaN, 0.05188305, "- N/A -   "
0.15, 10.3794, 4.081825E-4, NaN, NaN, NaN, 0.0494415, "- N/A -   "
0.16, 10.8512, 0.000430397, NaN, NaN, NaN, 0.04699994, "- N/A -   "
0.17, 11.323, 0.000452611, NaN, NaN, NaN, 0.0445584, "- N/A -   "
0.18, 11.6768, 4.720478E-4, NaN, NaN, NaN, 0.0433376, "- N/A -   "
0.19, 12.2665, 4.970386E-4, NaN, NaN, NaN, 0.04089605, "- N/A -   "
0.2, 12.6204, 5.164758E-4, NaN, NaN, NaN, 0.0396753, "- N/A -   "
0.21, 13.09217, 5.359131E-4, NaN, NaN, NaN, 0.0372337, "- N/A -   "
0.22, 13.446, 5.553504E-4, NaN, NaN, NaN, 0.0372337, "- N/A -   "
0.23, 13.7999, 5.720109E-4, NaN, NaN, NaN, 0.0372337, "- N/A -   "
0.24, 14.1537, 0.000588671, NaN, NaN, NaN, 0.03601294, "- N/A -   "
0.25, 14.5075, 0.000602555, NaN, NaN, NaN, 0.0372337, "- N/A -   "
0.26, 14.7434, 0.000619216, NaN, NaN, NaN, 0.0372337, "- N/A -   "
0.27, 15.0973, 0.000635876, NaN, NaN, NaN, 0.0384545, "- N/A -   "
0.28, 15.3332, 6.497599E-4, NaN, NaN, NaN, 0.0384545, "- N/A -   "
0.29, 15.687, 0.00066642, NaN, NaN, NaN, 0.0384545, "- N/A -   "
0.3, 16.0409, 6.858577E-4, NaN, NaN, NaN, 0.0384545, "- N/A -   "
0.31, 16.3947, 7.025182E-4, NaN, NaN, NaN, 0.0372337, "- N/A -   "
0.32, 16.6306, 7.191787E-4, NaN, NaN, NaN, 0.0372337, "- N/A -   "
0.33, 17.1024, 0.000733062, NaN, NaN, NaN, 0.0384545, "- N/A -   "
0.34, 17.4562, 0.000746946, NaN, NaN, NaN, 0.0396753, "- N/A -   "
0.35, 17.5742, 7.6083E-4, NaN, NaN, NaN, 0.04089605, "- N/A -   "
0.36, 17.8101, 0.000774714, NaN, NaN, NaN, 0.04211683, "- N/A -   "
0.42, 19.6972, 8.663466E-4, NaN, NaN, NaN, 0.04577916, "- N/A -   "
0.48, 21.7023, 9.663096E-4, NaN, NaN, NaN, 0.04699994, "- N/A -   "
0.54, 23.9433, 0.00107183, NaN, NaN, NaN, 0.0433376, "- N/A -   "
0.6, 26.18434, 0.0011829, NaN, NaN, NaN, 0.0384545, "- N/A -   "
0.66, 28.42534, 0.00128841, NaN, NaN, NaN, 0.03601294, "- N/A -   "
0.72, 30.5484, 0.00139671, NaN, NaN, NaN, 0.0323506, "- N/A -   "
0.78, 32.67145, 0.001499446, NaN, NaN, NaN, 0.03112983, "- N/A -   "
0.84, 34.7945, 0.00160496, NaN, NaN, NaN, 0.0286883, "- N/A -   "
0.9, 36.5637, 0.00170215, NaN, NaN, NaN, 0.03112983, "- N/A -   "
0.96, 38.3329, 0.001791, NaN, NaN, NaN, 0.0347922, "- N/A -   "
1.02, 40.22009, 0.00187708, NaN, NaN, NaN, 0.04089605, "- N/A -   "
1.08, 42.1072, 0.00197149, NaN, NaN, NaN, 0.0445584, "- N/A -   "
1.14, 44.2303, 0.00207146, NaN, NaN, NaN, 0.0445584, "- N/A -   "
1.2, 46.23541, 0.002168643, NaN, NaN, NaN, 0.04577916, "- N/A -   "
1.26, 48.7123, 0.00227971, NaN, NaN, NaN, 0.04089605, "- N/A -   "
1.32, 51.0713, 0.002396337, NaN, NaN, NaN, 0.0323506, "- N/A -   "
1.38, 53.19431, 0.00250185, NaN, NaN, NaN, 0.03112983, "- N/A -   "
1.44, 55.0815, 0.002596263, NaN, NaN, NaN, 0.0323506, "- N/A -   "
1.5, 56.9686, 0.00269067, NaN, NaN, NaN, 0.03601294, "- N/A -   "
1.56, 58.9737, 0.00278508, NaN, NaN, NaN, 0.0372337, "- N/A -   "
1.62, 61.2147, 0.00288505, NaN, NaN, NaN, 0.0384545, "- N/A -   "
1.68, 63.33779, 0.00298501, NaN, NaN, NaN, 0.0384545, "- N/A -   "
1.74, 65.22495, 0.00307664, NaN, NaN, NaN, 0.04089605, "- N/A -   "
1.8, 67.23006, 0.00317105, NaN, NaN, NaN, 0.0445584, "- N/A -   "
1.86, 69.35311, 0.00327101, NaN, NaN, NaN, 0.0433376, "- N/A -   "
1.92, 71.83001, 0.00338764, NaN, NaN, NaN, 0.0372337, "- N/A -   "
1.98, 74.3069, 0.00349871, NaN, NaN, NaN, 0.03112983, "- N/A -   "
2.04, 76.43, 0.00360145, NaN, NaN, NaN, 0.0299091, "- N/A -   "
2.1, 78.4351, 0.00369586, NaN, NaN, NaN, 0.0323506, "- N/A -   "
2.16, 80.44018, 0.00379027, NaN, NaN, NaN, 0.03601294, "- N/A -   "
2.22, 82.79912, 0.00389301, NaN, NaN, NaN, 0.0335714, "- N/A -   "
2.28, 84.92217, 0.003995746, NaN, NaN, NaN, 0.0335714, "- N/A -   "
2.34, 86.92729, 0.00409016, NaN, NaN, NaN, 0.03601294, "- N/A -   "
2.4, 88.9324, 0.00417901, NaN, NaN, NaN, 0.0396753, "- N/A -   "
2.46, 90.9375, 0.004273421, NaN, NaN, NaN, 0.04211683, "- N/A -   "
2.52, 93.1785, 0.00437894, NaN, NaN, NaN, 0.04089605, "- N/A -   "
2.58, 95.30156, 0.0044789, NaN, NaN, NaN, 0.0396753, "- N/A -   "
2.64, 97.6605, 0.004587194, NaN, NaN, NaN, 0.0372337, "- N/A -   "
2.7, 99.9015, 0.004687157, NaN, NaN, NaN, 0.03601294, "- N/A -   "
2.76, 102.143, 0.00479545, NaN, NaN, NaN, 0.0335714, "- N/A -   "
2.82, 104.384, 0.00489541, NaN, NaN, NaN, 0.0323506, "- N/A -   "
2.88, 106.271, 0.0049926, NaN, NaN, NaN, 0.0347922, "- N/A -   "
2.94, 108.512, 0.005092563, NaN, NaN, NaN, 0.0335714, "- N/A -   "
3, 110.517, 0.00519253, NaN, NaN, NaN, 0.0347922, "- N/A -   "
3.06, 112.522, 0.00528694, NaN, NaN, NaN, 0.03601294, "- N/A -   "
3.12, 114.527, 0.00538135, NaN, NaN, NaN, 0.0384545, "- N/A -   "
3.18, 116.5321, 0.00547853, NaN, NaN, NaN, 0.04089605, "- N/A -   "
3.24, 118.419, 0.005572941, NaN, NaN, NaN, 0.0433376, "- N/A -   "
3.3, 120.66, 0.00567568, NaN, NaN, NaN, 0.04089605, "- N/A -   "
3.36, 123.137, 0.00578953, NaN, NaN, NaN, 0.03601294, "- N/A -   "
3.42, 125.26, 0.00589504, NaN, NaN, NaN, 0.0323506, "- N/A -   "
3.48, 127.265, 0.005997784, NaN, NaN, NaN, 0.03112983, "- N/A -   "
3.54, 129.152, 0.00609219, NaN, NaN, NaN, 0.03601294, "- N/A -   "
3.6, 131.511, 0.006203264, NaN, NaN, NaN, 0.0299091, "- N/A -   "
3.66, 133.399, 0.006303226, NaN, NaN, NaN, 0.0299091, "- N/A -   "
3.72, 135.1678, 0.00639486, NaN, NaN, NaN, 0.0335714, "- N/A -   "
3.78, 136.819, 0.00648094, NaN, NaN, NaN, 0.04089605, "- N/A -   "
3.84, 138.47, 0.006567018, NaN, NaN, NaN, 0.04699994, "- N/A -   "
3.9, 140.24, 0.006661428, NaN, NaN, NaN, 0.0482207, "- N/A -   "
3.96, 142.5985, 0.006772498, NaN, NaN, NaN, 0.0445584, "- N/A -   "
4.02, 144.8395, 0.00688634, NaN, NaN, NaN, 0.0372337, "- N/A -   "
4.08, 146.8446, 0.006994638, NaN, NaN, NaN, 0.0335714, "- N/A -   "
4.14, 148.968, 0.00710015, NaN, NaN, NaN, 0.03112983, "- N/A -   "
4.2, 150.973, 0.00720567, NaN, NaN, NaN, 0.0286883, "- N/A -   "
4.26, 152.86, 0.00730563, NaN, NaN, NaN, 0.0286883, "- N/A -   "
4.32, 154.629, 0.00740004, NaN, NaN, NaN, 0.03112983, "- N/A -   "
4.38, 156.162, 0.00748612, NaN, NaN, NaN, 0.0372337, "- N/A -   "
4.44, 157.696, 0.00757498, NaN, NaN, NaN, 0.04211683, "- N/A -   "
4.5, 159.583, 0.007669389, NaN, NaN, NaN, 0.0445584, "- N/A -   "
4.56, 161.4701, 0.00776935, NaN, NaN, NaN, 0.0445584, "- N/A -   "
4.62, 163.357, 0.007872092, NaN, NaN, NaN, 0.0433376, "- N/A -   "
4.68, 165.362, 0.007980385, NaN, NaN, NaN, 0.0396753, "- N/A -   "
4.74, 167.603, 0.008097009, NaN, NaN, NaN, 0.0323506, "- N/A -   "
4.8, 169.608, 0.008205301, NaN, NaN, NaN, 0.0299091, "- N/A -   "
4.86, 171.26, 0.008305265, NaN, NaN, NaN, 0.0286883, "- N/A -   "
4.92, 173.029, 0.008396897, NaN, NaN, NaN, 0.0323506, "- N/A -   "
4.98, 174.6802, 0.008494084, NaN, NaN, NaN, 0.0335714, "- N/A -   "
5.04, 176.331, 0.008588494, NaN, NaN, NaN, 0.03601294, "- N/A -   "
5.1, 178.1007, 0.00868568, NaN, NaN, NaN, 0.0372337, "- N/A -   "
5.16, 179.634, 0.008774536, NaN, NaN, NaN, 0.04211683, "- N/A -   "
5.22, 181.285, 0.008868946, NaN, NaN, NaN, 0.0445584, "- N/A -   "
5.28, 183.054, 0.008968908, NaN, NaN, NaN, 0.04577916, "- N/A -   "
5.34, 185.295, 0.009082756, NaN, NaN, NaN, 0.0384545, "- N/A -   "
5.4, 187.183, 0.009196602, NaN, NaN, NaN, 0.0323506, "- N/A -   "
5.46, 189.0698, 0.009304896, NaN, NaN, NaN, 0.0299091, "- N/A -   "
5.52, 190.603, 0.009393752, NaN, NaN, NaN, 0.0347922, "- N/A -   "
5.58, 192.254, 0.009490938, NaN, NaN, NaN, 0.03601294, "- N/A -   "
5.64, 194.142, 0.009593678, NaN, NaN, NaN, 0.0335714, "- N/A -   "
5.7, 196.0287, 0.00969642, NaN, NaN, NaN, 0.0323506, "- N/A -   "
5.76, 197.68, 0.00978805, NaN, NaN, NaN, 0.03601294, "- N/A -   "
5.82, 199.213, 0.009876906, NaN, NaN, NaN, 0.04089605, "- N/A -   "
5.88, 200.9825, 0.00997687, NaN, NaN, NaN, 0.04089605, "- N/A -   "
5.94, 202.87, 0.01007961, NaN, NaN, NaN, 0.0396753, "- N/A -   "
6, 204.639, 0.0101796, NaN, NaN, NaN, 0.0396753, "- N/A -   "
6.06, 206.644, 0.0102879, NaN, NaN, NaN, 0.0372337, "- N/A -   "
6.12, 208.531, 0.0103878, NaN, NaN, NaN, 0.03601294, "- N/A -   "
6.18, 210.3, 0.0104878, NaN, NaN, NaN, 0.03601294, "- N/A -   "
6.24, 212.305, 0.0105961, NaN, NaN, NaN, 0.0323506, "- N/A -   "
6.3, 214.075, 0.0106988, NaN, NaN, NaN, 0.03112983, "- N/A -   "
6.36, 215.844, 0.010796, NaN, NaN, NaN, 0.0323506, "- N/A -   "
6.42, 217.613, 0.010896, NaN, NaN, NaN, 0.0323506, "- N/A -   "
6.48, 219.3823, 0.0109932, NaN, NaN, NaN, 0.0347922, "- N/A -   "
6.54, 221.034, 0.0110792, NaN, NaN, NaN, 0.0396753, "- N/A -   "
6.6, 222.685, 0.0111764, NaN, NaN, NaN, 0.04211683, "- N/A -   "
6.66, 224.572, 0.0112681, NaN, NaN, NaN, 0.0445584, "- N/A -   "
6.72, 226.459, 0.0113708, NaN, NaN, NaN, 0.0433376, "- N/A -   "
6.78, 228.5822, 0.0114846, NaN, NaN, NaN, 0.0372337, "- N/A -   "
6.84, 230.705, 0.0115957, NaN, NaN, NaN, 0.0335714, "- N/A -   "
6.9, 232.71, 0.0116985, NaN, NaN, NaN, 0.03112983, "- N/A -   "
6.96, 234.48, 0.0117984, NaN, NaN, NaN, 0.03112983, "- N/A -   "
7.02, 236.367, 0.0119012, NaN, NaN, NaN, 0.0299091, "- N/A -   "
7.08, 238.372, 0.0120011, NaN, NaN, NaN, 0.0299091, "- N/A -   "
7.14, 240.0231, 0.0120955, NaN, NaN, NaN, 0.0323506, "- N/A -   "
7.2, 241.438, 0.0121788, NaN, NaN, NaN, 0.04089605, "- N/A -   "
7.26, 243.089, 0.0122649, NaN, NaN, NaN, 0.04699994, "- N/A -   "
7.32, 245.092, 0.0123677, NaN, NaN, NaN, 0.04577916, "- N/A -   "
7.38, 247.213, 0.0124787, NaN, NaN, NaN, 0.04089605, "- N/A -   "
7.44, 249.334, 0.012587, NaN, NaN, NaN, 0.03601294, "- N/A -   "
7.5, 251.337, 0.0126925, NaN, NaN, NaN, 0.0347922, "- N/A -   "
7.56, 253.34, 0.0128008, NaN, NaN, NaN, 0.0299091, "- N/A -   "
7.62, 255.225, 0.0129036, NaN, NaN, NaN, 0.0286883, "- N/A -   "
7.68, 257.228, 0.01300353, NaN, NaN, NaN, 0.0286883, "- N/A -   "
7.74, 259.113, 0.0131007, NaN, NaN, NaN, 0.0299091, "- N/A -   "
7.8, 260.6452, 0.0131896, NaN, NaN, NaN, 0.0347922, "- N/A -   "
7.86, 262.295, 0.01327565, NaN, NaN, NaN, 0.04089605, "- N/A -   "
7.92, 264.18, 0.0133728, NaN, NaN, NaN, 0.04211683, "- N/A -   "
7.98, 266.065, 0.0134672, NaN, NaN, NaN, 0.0445584, "- N/A -   "
8.04, 267.95, 0.0135644, NaN, NaN, NaN, 0.04577916, "- N/A -   "
8.1, 270.189, 0.0136783, NaN, NaN, NaN, 0.04089605, "- N/A -   "
8.16, 272.428, 0.0137949, NaN, NaN, NaN, 0.0347922, "- N/A -   "
8.22, 274.667, 0.0139032, NaN, NaN, NaN, 0.0299091, "- N/A -   "
8.28, 276.552, 0.0140059, NaN, NaN, NaN, 0.0286883, "- N/A -   "
8.34, 278.437, 0.0141003, NaN, NaN, NaN, 0.03112983, "- N/A -   "
8.4, 280.322, 0.014192, NaN, NaN, NaN, 0.0347922, "- N/A -   "
8.46, 281.972, 0.0142836, NaN, NaN, NaN, 0.0384545, "- N/A -   "
8.52, 283.9748, 0.0143836, NaN, NaN, NaN, 0.0384545, "- N/A -   "
8.58, 285.86, 0.014478, NaN, NaN, NaN, 0.04211683, "- N/A -   "
8.64, 287.51, 0.0145668, NaN, NaN, NaN, 0.04577916, "- N/A -   "
8.7, 289.748, 0.0146724, NaN, NaN, NaN, 0.0433376, "- N/A -   "
8.76, 292.34, 0.0147973, NaN, NaN, NaN, 0.0323506, "- N/A -   "
8.82, 294.4613, 0.0149056, NaN, NaN, NaN, 0.0286883, "- N/A -   "
8.87, 295.993, 0.0149834, NaN, NaN, NaN, 0.03112983, "- N/A -   "
8.88, 296.2287, 0.015, NaN, NaN, NaN, 0.0323506, "- N/A -   "
8.89, 296.464, 0.0150139, NaN, NaN, NaN, 0.0323506, "- N/A -   "
9.01, 300.117, 0.01519994, NaN, NaN, NaN, 0.0384545, "- N/A -   "
9.13, 304.241, 0.0154054, NaN, NaN, NaN, 0.0372337, "- N/A -   "
9.25, 308.011, 0.0155915, NaN, NaN, NaN, 0.04211683, "- N/A -   "
9.37, 312.253, 0.0157969, NaN, NaN, NaN, 0.0396753, "- N/A -   "
9.49, 316.495, 0.0160052, NaN, NaN, NaN, 0.03601294, "- N/A -   "
9.61, 320.619, 0.0162079, NaN, NaN, NaN, 0.03601294, "- N/A -   "
9.73, 324.7426, 0.01641338, NaN, NaN, NaN, 0.0323506, "- N/A -   "
9.85, 328.631, 0.0166022, NaN, NaN, NaN, 0.0372337, "- N/A -   "
9.97, 332.7548, 0.01679935, NaN, NaN, NaN, 0.0384545, "- N/A -   "
10.09, 336.643, 0.0169909, NaN, NaN, NaN, 0.0433376, "- N/A -   "
10.21, 341.238, 0.0172159, NaN, NaN, NaN, 0.0323506, "- N/A -   "
10.33, 345.127, 0.0174102, NaN, NaN, NaN, 0.0335714, "- N/A -   "
10.45, 349.6039, 0.017624, NaN, NaN, NaN, 0.0286883, "- N/A -   "
10.57, 353.374, 0.0178101, NaN, NaN, NaN, 0.0335714, "- N/A -   "
10.69, 357.027, 0.017985, NaN, NaN, NaN, 0.0445584, "- N/A -   "
10.81, 361.504, 0.0181988, NaN, NaN, NaN, 0.0384545, "- N/A -   "
10.93, 365.982, 0.0184099, NaN, NaN, NaN, 0.0335714, "- N/A -   "
11.05, 370.3413, 0.0186153, NaN, NaN, NaN, 0.03112983, "- N/A -   "
11.17, 374.465, 0.0188125, NaN, NaN, NaN, 0.0335714, "- N/A -   "
11.29, 378.0, 0.01898743, NaN, NaN, NaN, 0.0433376, "- N/A -   "
11.41, 382.242, 0.0191874, NaN, NaN, NaN, 0.0433376, "- N/A -   "
11.53, 386.837, 0.0194039, NaN, NaN, NaN, 0.0372337, "- N/A -   "
11.65, 391.55, 0.0196233, NaN, NaN, NaN, 0.0274675, "- N/A -   "
11.77, 395.674, 0.0198121, NaN, NaN, NaN, 0.0335714, "- N/A -   "
11.89, 399.68, 0.0200037, NaN, NaN, NaN, 0.03601294, "- N/A -   "
12.01, 403.568, 0.0201898, NaN, NaN, NaN, 0.04211683, "- N/A -   "
12.13, 408.046, 0.0203897, NaN, NaN, NaN, 0.0433376, "- N/A -   "
12.25, 413.112, 0.0206202, NaN, NaN, NaN, 0.0286883, "- N/A -   "
12.37, 417, 0.0208062, NaN, NaN, NaN, 0.0347922, "- N/A -   "
12.49, 421.713, 0.0210145, NaN, NaN, NaN, 0.0323506, "- N/A -   "
12.61, 425.72, 0.0211949, NaN, NaN, NaN, 0.04089605, "- N/A -   "
12.73, 430.079, 0.0213949, NaN, NaN, NaN, 0.04089605, "- N/A -   "
12.85, 434.4387, 0.0216004, NaN, NaN, NaN, 0.0396753, "- N/A -   "
12.97, 439.152, 0.0218086, NaN, NaN, NaN, 0.0347922, "- N/A -   "
13.09, 443.629, 0.0220141, NaN, NaN, NaN, 0.0323506, "- N/A -   "
13.21, 448.1065, 0.0222112, NaN, NaN, NaN, 0.0335714, "- N/A -   "
13.33, 452.23, 0.0224028, NaN, NaN, NaN, 0.0372337, "- N/A -   "
13.45, 456.354, 0.0225917, NaN, NaN, NaN, 0.04211683, "- N/A -   "
13.57, 461.067, 0.0227944, NaN, NaN, NaN, 0.04089605, "- N/A -   "
13.69, 466.016, 0.0230082, NaN, NaN, NaN, 0.0347922, "- N/A -   "
13.81, 470.493, 0.0232109, NaN, NaN, NaN, 0.0335714, "- N/A -   "
13.93, 475.2065, 0.0234191, NaN, NaN, NaN, 0.0299091, "- N/A -   "
14.05, 478.859, 0.02358573, NaN, NaN, NaN, 0.0445584, "- N/A -   "
14.17, 483.808, 0.0237968, NaN, NaN, NaN, 0.0396753, "- N/A -   "
14.29, 488.757, 0.0240078, NaN, NaN, NaN, 0.0347922, "- N/A -   "
14.41, 493.823, 0.0242299, NaN, NaN, NaN, 0.0262467, "- N/A -   "
14.53, 497.476, 0.0244021, NaN, NaN, NaN, 0.0372337, "- N/A -   "
14.65, 501.953, 0.0245965, NaN, NaN, NaN, 0.0396753, "- N/A -   "
14.77, 506.313, 0.02478251, NaN, NaN, NaN, 0.04577916, "- N/A -   "
14.89, 511.379, 0.0249991, NaN, NaN, NaN, 0.0396753, "- N/A -   "
15.01, 516.694, 0.0252212, NaN, NaN, NaN, 0.0286883, "- N/A -   "
15.13, 521.07, 0.02541561, NaN, NaN, NaN, 0.03112983, "- N/A -   "
15.25, 525.565, 0.0256017, NaN, NaN, NaN, 0.0372337, "- N/A -   "
15.37, 530.2959, 0.0257988, NaN, NaN, NaN, 0.0384545, "- N/A -   "
15.49, 534.554, 0.0259848, NaN, NaN, NaN, 0.04577916, "- N/A -   "
15.61, 539.877, 0.02620976, NaN, NaN, NaN, 0.0335714, "- N/A -   "
15.73, 544.608, 0.0264097, NaN, NaN, NaN, 0.0347922, "- N/A -   "
15.85, 549.3391, 0.0266096, NaN, NaN, NaN, 0.0335714, "- N/A -   "
15.97, 554.0703, 0.02680954, NaN, NaN, NaN, 0.0335714, "- N/A -   "
16.09, 558.3284, 0.0269928, NaN, NaN, NaN, 0.04211683, "- N/A -   "
16.21, 563.178, 0.0271955, NaN, NaN, NaN, 0.0396753, "- N/A -   "
16.33, 568.3823, 0.0274093, NaN, NaN, NaN, 0.0347922, "- N/A -   "
16.45, 573.1136, 0.02760369, NaN, NaN, NaN, 0.03601294, "- N/A -   "
16.57, 578.081, 0.02780917, NaN, NaN, NaN, 0.0335714, "- N/A -   "
16.69, 583.049, 0.0280174, NaN, NaN, NaN, 0.0299091, "- N/A -   "
16.81, 587.189, 0.0281951, NaN, NaN, NaN, 0.0396753, "- N/A -   "
16.93, 591.92, 0.02838951, NaN, NaN, NaN, 0.04211683, "- N/A -   "
17.05, 597.243, 0.0286089, NaN, NaN, NaN, 0.0347922, "- N/A -   "
17.17, 602.092, 0.0288144, NaN, NaN, NaN, 0.0323506, "- N/A -   "
17.29, 607.2967, 0.0290254, NaN, NaN, NaN, 0.0286883, "- N/A -   "
17.41, 611.4366, 0.0292031, NaN, NaN, NaN, 0.0384545, "- N/A -   "
17.53, 615.695, 0.0293836, NaN, NaN, NaN, 0.04699994, "- N/A -   "
17.65, 621.136, 0.0295974, NaN, NaN, NaN, 0.0396753, "- N/A -   "
17.77, 626.3399, 0.0298112, NaN, NaN, NaN, 0.0347922, "- N/A -   "
17.89, 631.426, 0.0300167, NaN, NaN, NaN, 0.03112983, "- N/A -   "
18.01, 636.039, 0.0302083, NaN, NaN, NaN, 0.0347922, "- N/A -   "
18.13, 640.2971, 0.0303888, NaN, NaN, NaN, 0.0433376, "- N/A -   "
18.25, 645.3832, 0.0305887, NaN, NaN, NaN, 0.0445584, "- N/A -   "
18.37, 651.061, 0.0308108, NaN, NaN, NaN, 0.0347922, "- N/A -   "
18.49, 656.5015, 0.0310219, NaN, NaN, NaN, 0.0286883, "- N/A -   "
18.61, 661.2328, 0.0312107, NaN, NaN, NaN, 0.0335714, "- N/A -   "
18.73, 666.0823, 0.0314051, NaN, NaN, NaN, 0.0372337, "- N/A -   "
18.85, 670.695, 0.0315883, NaN, NaN, NaN, 0.0433376, "- N/A -   "
18.97, 676.1361, 0.0317966, NaN, NaN, NaN, 0.0396753, "- N/A -   "
19.09, 681.6953, 0.03201317, NaN, NaN, NaN, 0.0323506, "- N/A -   "
19.21, 686.4266, 0.03220199, NaN, NaN, NaN, 0.0384545, "- N/A -   "
19.33, 691.8675, 0.0324102, NaN, NaN, NaN, 0.0335714, "- N/A -   "
19.45, 696.599, 0.0325991, NaN, NaN, NaN, 0.0384545, "- N/A -   "
19.57, 701.6848, 0.0327962, NaN, NaN, NaN, 0.0396753, "- N/A -   "
19.69, 707.007, 0.0330045, NaN, NaN, NaN, 0.03601294, "- N/A -   "
19.81, 712.0935, 0.0332044, NaN, NaN, NaN, 0.0372337, "- N/A -   "
19.93, 717.6527, 0.03341543, NaN, NaN, NaN, 0.03112983, "- N/A -   "
20.05, 722.502, 0.0336098, NaN, NaN, NaN, 0.0335714, "- N/A -   "
20.17, 727.5883, 0.03380418, NaN, NaN, NaN, 0.03601294, "- N/A -   "
20.29, 732.3196, 0.03399022, NaN, NaN, NaN, 0.0433376, "- N/A -   "
20.41, 737.7605, 0.0341957, NaN, NaN, NaN, 0.0396753, "- N/A -   "
20.53, 743.32, 0.0344067, NaN, NaN, NaN, 0.03601294, "- N/A -   "
20.65, 748.524, 0.0346122, NaN, NaN, NaN, 0.0323506, "- N/A -   "
20.77, 753.965, 0.0348177, NaN, NaN, NaN, 0.0299091, "- N/A -   "
20.89, 758.2231, 0.0349871, NaN, NaN, NaN, 0.0433376, "- N/A -   "
21.01, 763.4274, 0.0351842, NaN, NaN, NaN, 0.0445584, "- N/A -   "
21.13, 769.4597, 0.0354119, NaN, NaN, NaN, 0.0335714, "- N/A -   "
21.25, 775.1372, 0.0356257, NaN, NaN, NaN, 0.0262467, "- N/A -   "
21.37, 780.105, 0.0358201, NaN, NaN, NaN, 0.0286883, "- N/A -   "
21.49, 784.5997, 0.035995, NaN, NaN, NaN, 0.04089605, "- N/A -   "
21.61, 789.8041, 0.0361922, NaN, NaN, NaN, 0.04211683, "- N/A -   "
21.73, 795.1267, 0.0363949, NaN, NaN, NaN, 0.04089605, "- N/A -   "
21.85, 801.0407, 0.036617, NaN, NaN, NaN, 0.03112983, "- N/A -   "
21.97, 806.1268, 0.0368114, NaN, NaN, NaN, 0.0335714, "- N/A -   "
22.09, 811.2129, 0.0370002, NaN, NaN, NaN, 0.0384545, "- N/A -   "
22.21, 816.299, 0.03719459, NaN, NaN, NaN, 0.04211683, "- N/A -   "
22.33, 821.2667, 0.0373862, NaN, NaN, NaN, 0.04577916, "- N/A -   "
22.45, 827.5356, 0.0376194, NaN, NaN, NaN, 0.0299091, "- N/A -   "
22.57, 832.5034, 0.03781103, NaN, NaN, NaN, 0.0335714, "- N/A -   "
22.69, 837.944, 0.038011, NaN, NaN, NaN, 0.0335714, "- N/A -   "
22.81, 843.1487, 0.0382053, NaN, NaN, NaN, 0.03601294, "- N/A -   "
22.93, 847.88, 0.03839137, NaN, NaN, NaN, 0.04211683, "- N/A -   "
23.05, 853.321, 0.0385969, NaN, NaN, NaN, 0.04089605, "- N/A -   "
23.17, 858.9983, 0.0388079, NaN, NaN, NaN, 0.03601294, "- N/A -   "
23.29, 864.558, 0.0390134, NaN, NaN, NaN, 0.0323506, "- N/A -   "
23.41, 869.407, 0.03919941, NaN, NaN, NaN, 0.0384545, "- N/A -   "
23.53, 874.848, 0.0394077, NaN, NaN, NaN, 0.0347922, "- N/A -   "
23.65, 879.9341, 0.0395965, NaN, NaN, NaN, 0.0396753, "- N/A -   "
23.77, 885.2567, 0.0397936, NaN, NaN, NaN, 0.04089605, "- N/A -   "
23.89, 891.289, 0.04001855, NaN, NaN, NaN, 0.0299091, "- N/A -   "
24.01, 896.257, 0.04021292, NaN, NaN, NaN, 0.0335714, "- N/A -   "
24.13, 901.934, 0.040424, NaN, NaN, NaN, 0.0286883, "- N/A -   "
24.25, 906.3107, 0.0405933, NaN, NaN, NaN, 0.04089605, "- N/A -   "
24.37, 911.16, 0.0407766, NaN, NaN, NaN, 0.0482207, "- N/A -   "
24.49, 917.3108, 0.0410015, NaN, NaN, NaN, 0.0372337, "- N/A -   "
24.61, 922.7517, 0.0412098, NaN, NaN, NaN, 0.0335714, "- N/A -   "
24.73, 928.3109, 0.0414153, NaN, NaN, NaN, 0.03112983, "- N/A -   "
24.85, 933.16, 0.0416013, NaN, NaN, NaN, 0.0372337, "- N/A -   "
24.97, 937.892, 0.0417846, NaN, NaN, NaN, 0.0445584, "- N/A -   "
25.09, 943.3326, 0.04199, NaN, NaN, NaN, 0.04211683, "- N/A -   "
25.21, 949.601, 0.04221496, NaN, NaN, NaN, 0.03112983, "- N/A -   "
25.33, 955.042, 0.0424204, NaN, NaN, NaN, 0.0286883, "- N/A -   "
25.45, 960.1284, 0.04261204, NaN, NaN, NaN, 0.0323506, "- N/A -   "
25.57, 965.3328, 0.04280919, NaN, NaN, NaN, 0.0335714, "- N/A -   "
25.69, 970.064, 0.0429869, NaN, NaN, NaN, 0.0445584, "- N/A -   "
25.81, 975.7415, 0.04319793, NaN, NaN, NaN, 0.0396753, "- N/A -   "
25.93, 981.6556, 0.04341452, NaN, NaN, NaN, 0.0323506, "- N/A -   "
26.05, 986.623, 0.04360056, NaN, NaN, NaN, 0.0372337, "- N/A -   "
26.17, 992.1826, 0.0438116, NaN, NaN, NaN, 0.0335714, "- N/A -   "
26.29, 996.914, 0.04399208, NaN, NaN, NaN, 0.04211683, "- N/A -   "
26.41, 1002.473, 0.04419756, NaN, NaN, NaN, 0.0396753, "- N/A -   "
26.53, 1008.03, 0.044403, NaN, NaN, NaN, 0.0372337, "- N/A -   "
26.65, 1013.477, 0.04460852, NaN, NaN, NaN, 0.0347922, "- N/A -   "
26.77, 1019.2, 0.044814, NaN, NaN, NaN, 0.0335714, "- N/A -   "
26.83, 1021.82, 0.044914, NaN, NaN, NaN, 0.0323506, "- N/A -   "