File: 2_Tensile_Data/Hamel_ForceTest_Bolt10_Test6.csv
Time, Load (lb), Position (in), AxialStrain (in), TransverseStrain (in), Auxiliary (), Control Out (V), Stress (psi)
0.0, 11.0871, 0.0, NaN, NaN, NaN, -0.007935055, "- N/A -   "
0.01, 11.0871, 0.0, NaN, NaN, NaN, -6.103888E-4, "- N/A -   "
0.02, 11.0871, 0.0, NaN, NaN, NaN, 0.006714277, "- N/A -   "
0.03, 11.0871, 0.0, NaN, NaN, NaN, 0.01525972, "- N/A -   "
0.04, 11.0871, 2.776752E-6, NaN, NaN, NaN, 0.0335714, "- N/A -   "
0.05, 11.205, 1.1107e-05, NaN, NaN, NaN, 0.0494415, "- N/A -   "
0.06, 11.4409, 2.2214e-05, NaN, NaN, NaN, 0.0640908, "- N/A -   "
0.07, 11.6768, 4.16513e-05, NaN, NaN, NaN, 0.0762986, "- N/A -   "
0.08, 12.14859, 6.386529E-5, NaN, NaN, NaN, 0.08606482, "- N/A -   "
0.09, 12.7383, 8.885606E-5, NaN, NaN, NaN, 0.09461027, "- N/A -   "
0.1, 13.2101, 0.000116624, NaN, NaN, NaN, 0.100714, "- N/A -   "
0.11, 13.7999, 0.000147168, NaN, NaN, NaN, 0.095831, "- N/A -   "
0.12, 14.3896, 0.000174935, NaN, NaN, NaN, 0.09094793, "- N/A -   "
0.13, 14.7434, 0.000197149, NaN, NaN, NaN, 0.0872856, "- N/A -   "
0.14, 15.3332, 0.00022214, NaN, NaN, NaN, 0.08362327, "- N/A -   "
0.15, 15.687, 2.471309E-4, NaN, NaN, NaN, 0.08118171, "- N/A -   "
0.16, 16.1588, 0.000269345, NaN, NaN, NaN, 0.07751938, "- N/A -   "
0.17, 16.5126, 0.000291559, NaN, NaN, NaN, 0.0750778, "- N/A -   "
0.18, 16.86649, 3.165497E-4, NaN, NaN, NaN, 0.07263627, "- N/A -   "
0.19, 17.2203, 0.000335987, NaN, NaN, NaN, 0.07141549, "- N/A -   "
0.2, 17.6921, 0.000358201, NaN, NaN, NaN, 0.0689739, "- N/A -   "
0.21, 17.928, 0.000377638, NaN, NaN, NaN, 0.06653238, "- N/A -   "
0.22, 18.3998, 0.000394299, NaN, NaN, NaN, 0.06653238, "- N/A -   "
0.23, 18.6357, 4.13736E-4, NaN, NaN, NaN, 0.0653116, "- N/A -   "
0.24, 19.1075, 0.00043595, NaN, NaN, NaN, 0.0640908, "- N/A -   "
0.25, 19.57928, 4.553873E-4, NaN, NaN, NaN, 0.06287005, "- N/A -   "
0.26, 19.8152, 0.000474825, NaN, NaN, NaN, 0.06164927, "- N/A -   "
0.27, 20.169, 4.942618E-4, NaN, NaN, NaN, 0.0592077, "- N/A -   "
0.28, 20.52286, 5.164758E-4, NaN, NaN, NaN, 0.0579869, "- N/A -   "
0.29, 20.99465, 5.359131E-4, NaN, NaN, NaN, 0.0555454, "- N/A -   "
0.3, 21.3485, 5.553504E-4, NaN, NaN, NaN, 0.0543246, "- N/A -   "
0.31, 21.7023, 0.000577564, NaN, NaN, NaN, 0.05188305, "- N/A -   "
0.32, 22.0562, 0.000597002, NaN, NaN, NaN, 0.05066227, "- N/A -   "
0.33, 22.41, 0.000619216, NaN, NaN, NaN, 0.0482207, "- N/A -   "
0.34, 22.88181, 6.414297E-4, NaN, NaN, NaN, 0.04699994, "- N/A -   "
0.35, 23.2357, 6.608669E-4, NaN, NaN, NaN, 0.0445584, "- N/A -   "
0.36, 23.5895, 6.830809E-4, NaN, NaN, NaN, 0.0433376, "- N/A -   "
0.37, 23.9433, 7.025182E-4, NaN, NaN, NaN, 0.04089605, "- N/A -   "
0.38, 24.4151, 7.219555E-4, NaN, NaN, NaN, 0.0396753, "- N/A -   "
0.39, 24.65102, 7.413927E-4, NaN, NaN, NaN, 0.0384545, "- N/A -   "
0.4, 25.1228, 7.6083E-4, NaN, NaN, NaN, 0.0372337, "- N/A -   "
0.41, 25.3587, 7.774905E-4, NaN, NaN, NaN, 0.0372337, "- N/A -   "
0.42, 25.7125, 7.969278E-4, NaN, NaN, NaN, 0.03601294, "- N/A -   "
0.43, 26.0664, 8.16365E-4, NaN, NaN, NaN, 0.03601294, "- N/A -   "
0.44, 26.3023, 0.000833026, NaN, NaN, NaN, 0.0347922, "- N/A -   "
0.45, 26.7741, 0.000849686, NaN, NaN, NaN, 0.03601294, "- N/A -   "
0.46, 27.01, 8.663466E-4, NaN, NaN, NaN, 0.0347922, "- N/A -   "
0.47, 27.1279, 0.00088023, NaN, NaN, NaN, 0.03601294, "- N/A -   "
0.48, 27.4818, 8.968908E-4, NaN, NaN, NaN, 0.0372337, "- N/A -   "
0.49, 27.7177, 0.000913551, NaN, NaN, NaN, 0.0372337, "- N/A -   "
0.5, 28.0715, 9.274351E-4, NaN, NaN, NaN, 0.0372337, "- N/A -   "
0.51, 28.42534, 9.440956E-4, NaN, NaN, NaN, 0.0372337, "- N/A -   "
0.52, 28.7792, 9.635329E-4, NaN, NaN, NaN, 0.03601294, "- N/A -   "
0.53, 29.133, 9.829701E-4, NaN, NaN, NaN, 0.0347922, "- N/A -   "
0.54, 29.4869, 0.00100241, NaN, NaN, NaN, 0.0335714, "- N/A -   "
0.59, 31.1381, 0.00109126, NaN, NaN, NaN, 0.03112983, "- N/A -   "
0.64, 32.67145, 0.00117734, NaN, NaN, NaN, 0.03112983, "- N/A -   "
0.69, 34.08682, 0.00124954, NaN, NaN, NaN, 0.0347922, "- N/A -   "
0.74, 35.3842, 0.00132451, NaN, NaN, NaN, 0.0396753, "- N/A -   "
0.79, 36.6817, 0.001399483, NaN, NaN, NaN, 0.0433376, "- N/A -   "
0.84, 37.9791, 0.00147168, NaN, NaN, NaN, 0.04699994, "- N/A -   "
0.89, 39.7483, 0.00156053, NaN, NaN, NaN, 0.0445584, "- N/A -   "
0.94, 41.51751, 0.00165772, NaN, NaN, NaN, 0.0396753, "- N/A -   "
0.99, 43.1688, 0.0017438, NaN, NaN, NaN, 0.0372337, "- N/A -   "
1.04, 44.82, 0.00183266, NaN, NaN, NaN, 0.03601294, "- N/A -   "
1.09, 46.4713, 0.00191874, NaN, NaN, NaN, 0.0335714, "- N/A -   "
1.14, 48.2405, 0.00201592, NaN, NaN, NaN, 0.0286883, "- N/A -   "
1.19, 49.7738, 0.00209645, NaN, NaN, NaN, 0.0286883, "- N/A -   "
1.24, 51.30715, 0.00217697, NaN, NaN, NaN, 0.0299091, "- N/A -   "
1.29, 52.9584, 0.002260276, NaN, NaN, NaN, 0.0299091, "- N/A -   "
1.34, 54.2558, 0.00233247, NaN, NaN, NaN, 0.03601294, "- N/A -   "
1.39, 55.6712, 0.002404667, NaN, NaN, NaN, 0.0396753, "- N/A -   "
1.44, 56.9686, 0.00247964, NaN, NaN, NaN, 0.0433376, "- N/A -   "
1.49, 58.6199, 0.002562942, NaN, NaN, NaN, 0.0433376, "- N/A -   "
1.54, 60.15321, 0.00264347, NaN, NaN, NaN, 0.0445584, "- N/A -   "
1.59, 61.8045, 0.00272677, NaN, NaN, NaN, 0.0445584, "- N/A -   "
1.64, 63.45574, 0.00281563, NaN, NaN, NaN, 0.04211683, "- N/A -   "
1.69, 65.4608, 0.00291281, NaN, NaN, NaN, 0.0372337, "- N/A -   "
1.74, 67.23006, 0.003009999, NaN, NaN, NaN, 0.0299091, "- N/A -   "
1.79, 68.8813, 0.00309608, NaN, NaN, NaN, 0.0286883, "- N/A -   "
1.84, 70.5326, 0.0031766, NaN, NaN, NaN, 0.0299091, "- N/A -   "
1.89, 71.83001, 0.00325158, NaN, NaN, NaN, 0.0335714, "- N/A -   "
1.94, 73.48127, 0.0033321, NaN, NaN, NaN, 0.0347922, "- N/A -   "
1.99, 75.13254, 0.003412628, NaN, NaN, NaN, 0.03601294, "- N/A -   "
2.04, 76.7838, 0.00349593, NaN, NaN, NaN, 0.03601294, "- N/A -   "
2.09, 78.31712, 0.00357368, NaN, NaN, NaN, 0.0384545, "- N/A -   "
2.14, 79.73249, 0.00364865, NaN, NaN, NaN, 0.04211683, "- N/A -   "
2.19, 81.26581, 0.003726401, NaN, NaN, NaN, 0.0445584, "- N/A -   "
2.24, 82.91707, 0.00381248, NaN, NaN, NaN, 0.0433376, "- N/A -   "
2.29, 84.92217, 0.00391244, NaN, NaN, NaN, 0.03601294, "- N/A -   "
2.34, 86.80934, 0.004006853, NaN, NaN, NaN, 0.03112983, "- N/A -   "
2.39, 88.57855, 0.00409016, NaN, NaN, NaN, 0.03112983, "- N/A -   "
2.44, 90.11186, 0.00417068, NaN, NaN, NaN, 0.0323506, "- N/A -   "
2.49, 91.52724, 0.004251207, NaN, NaN, NaN, 0.0347922, "- N/A -   "
2.54, 93.2965, 0.00433173, NaN, NaN, NaN, 0.0347922, "- N/A -   "
2.59, 94.8298, 0.00441781, NaN, NaN, NaN, 0.0347922, "- N/A -   "
2.64, 96.71693, 0.00450389, NaN, NaN, NaN, 0.0323506, "- N/A -   "
2.69, 98.13229, 0.00457886, NaN, NaN, NaN, 0.03601294, "- N/A -   "
2.74, 99.7836, 0.00465939, NaN, NaN, NaN, 0.0384545, "- N/A -   "
2.79, 101.199, 0.00473159, NaN, NaN, NaN, 0.04211683, "- N/A -   "
2.84, 102.85, 0.00482044, NaN, NaN, NaN, 0.0396753, "- N/A -   "
2.89, 104.737, 0.00490652, NaN, NaN, NaN, 0.0396753, "- N/A -   "
2.94, 106.389, 0.0049926, NaN, NaN, NaN, 0.0384545, "- N/A -   "
2.99, 108.04, 0.00507868, NaN, NaN, NaN, 0.0372337, "- N/A -   "
3.04, 109.691, 0.00515921, NaN, NaN, NaN, 0.0372337, "- N/A -   "
3.09, 111.342, 0.00524528, NaN, NaN, NaN, 0.03601294, "- N/A -   "
3.14, 113.112, 0.00533136, NaN, NaN, NaN, 0.0347922, "- N/A -   "
3.19, 114.881, 0.00541744, NaN, NaN, NaN, 0.0335714, "- N/A -   "
3.24, 116.414, 0.00550075, NaN, NaN, NaN, 0.0347922, "- N/A -   "
3.29, 117.947, 0.00558127, NaN, NaN, NaN, 0.0347922, "- N/A -   "
3.34, 119.717, 0.00566735, NaN, NaN, NaN, 0.0335714, "- N/A -   "
3.39, 121.25, 0.00575065, NaN, NaN, NaN, 0.0335714, "- N/A -   "
3.44, 123.137, 0.00583396, NaN, NaN, NaN, 0.0335714, "- N/A -   "
3.49, 124.435, 0.005908928, NaN, NaN, NaN, 0.0372337, "- N/A -   "
3.54, 126.086, 0.00598945, NaN, NaN, NaN, 0.0384545, "- N/A -   "
3.59, 127.619, 0.0060672, NaN, NaN, NaN, 0.04089605, "- N/A -   "
3.64, 129.152, 0.00614773, NaN, NaN, NaN, 0.0433376, "- N/A -   "
3.69, 130.922, 0.00623936, NaN, NaN, NaN, 0.04089605, "- N/A -   "
3.74, 132.9268, 0.006336548, NaN, NaN, NaN, 0.0335714, "- N/A -   "
3.79, 134.46, 0.00641985, NaN, NaN, NaN, 0.0335714, "- N/A -   "
3.84, 135.875, 0.0064976, NaN, NaN, NaN, 0.03601294, "- N/A -   "
3.89, 137.527, 0.0065809, NaN, NaN, NaN, 0.03601294, "- N/A -   "
3.94, 139.06, 0.00666976, NaN, NaN, NaN, 0.0335714, "- N/A -   "
3.99, 140.829, 0.006764168, NaN, NaN, NaN, 0.0299091, "- N/A -   "
4.04, 142.3626, 0.00684192, NaN, NaN, NaN, 0.03112983, "- N/A -   "
4.09, 143.778, 0.00691689, NaN, NaN, NaN, 0.0347922, "- N/A -   "
4.14, 145.193, 0.006994638, NaN, NaN, NaN, 0.0384545, "- N/A -   "
4.19, 146.3728, 0.00706683, NaN, NaN, NaN, 0.04211683, "- N/A -   "
4.24, 147.906, 0.00714458, NaN, NaN, NaN, 0.0445584, "- N/A -   "
4.29, 149.439, 0.00722511, NaN, NaN, NaN, 0.04577916, "- N/A -   "
4.34, 151.209, 0.00731674, NaN, NaN, NaN, 0.04211683, "- N/A -   "
4.39, 152.86, 0.007405597, NaN, NaN, NaN, 0.0396753, "- N/A -   "
4.44, 154.511, 0.00749723, NaN, NaN, NaN, 0.03601294, "- N/A -   "
4.49, 156.0445, 0.00758053, NaN, NaN, NaN, 0.03601294, "- N/A -   "
4.54, 157.814, 0.00767494, NaN, NaN, NaN, 0.03112983, "- N/A -   "
4.59, 159.465, 0.007761021, NaN, NaN, NaN, 0.0299091, "- N/A -   "
4.64, 160.88, 0.007841547, NaN, NaN, NaN, 0.03112983, "- N/A -   "
4.69, 162.414, 0.007924849, NaN, NaN, NaN, 0.0323506, "- N/A -   "
4.74, 163.947, 0.007997045, NaN, NaN, NaN, 0.03601294, "- N/A -   "
4.79, 165.009, 0.008069241, NaN, NaN, NaN, 0.04089605, "- N/A -   "
4.84, 166.542, 0.008146989, NaN, NaN, NaN, 0.0433376, "- N/A -   "
4.89, 167.9572, 0.008227515, NaN, NaN, NaN, 0.0445584, "- N/A -   "
4.94, 169.608, 0.008313595, NaN, NaN, NaN, 0.0445584, "- N/A -   "
4.99, 171.26, 0.008396897, NaN, NaN, NaN, 0.0433376, "- N/A -   "
5.04, 173.029, 0.008485753, NaN, NaN, NaN, 0.04089605, "- N/A -   "
5.09, 174.9161, 0.008582939, NaN, NaN, NaN, 0.03601294, "- N/A -   "
5.14, 176.803, 0.008682903, NaN, NaN, NaN, 0.0274675, "- N/A -   "
5.19, 178.337, 0.008760652, NaN, NaN, NaN, 0.0299091, "- N/A -   "
5.24, 179.752, 0.008841177, NaN, NaN, NaN, 0.03112983, "- N/A -   "
5.29, 181.285, 0.008921703, NaN, NaN, NaN, 0.0323506, "- N/A -   "
5.34, 182.937, 0.009005006, NaN, NaN, NaN, 0.0335714, "- N/A -   "
5.39, 184.47, 0.009082756, NaN, NaN, NaN, 0.0347922, "- N/A -   "
5.44, 185.885, 0.009160504, NaN, NaN, NaN, 0.0372337, "- N/A -   "
5.49, 187.419, 0.00924103, NaN, NaN, NaN, 0.0384545, "- N/A -   "
5.54, 188.834, 0.009316002, NaN, NaN, NaN, 0.04211683, "- N/A -   "
5.59, 190.367, 0.009399306, NaN, NaN, NaN, 0.0433376, "- N/A -   "
5.64, 192.018, 0.00947983, NaN, NaN, NaN, 0.0433376, "- N/A -   "
5.69, 193.7877, 0.009568687, NaN, NaN, NaN, 0.04089605, "- N/A -   "
5.74, 195.7928, 0.00966865, NaN, NaN, NaN, 0.0347922, "- N/A -   "
5.79, 197.68, 0.009760283, NaN, NaN, NaN, 0.03112983, "- N/A -   "
5.84, 199.095, 0.009840809, NaN, NaN, NaN, 0.03112983, "- N/A -   "
5.89, 200.5107, 0.00991578, NaN, NaN, NaN, 0.0347922, "- N/A -   "
5.94, 202.044, 0.009996306, NaN, NaN, NaN, 0.03601294, "- N/A -   "
5.99, 203.813, 0.0100852, NaN, NaN, NaN, 0.0347922, "- N/A -   "
6.04, 205.465, 0.0101712, NaN, NaN, NaN, 0.0335714, "- N/A -   "
6.09, 206.9978, 0.0102518, NaN, NaN, NaN, 0.0347922, "- N/A -   "
6.14, 208.531, 0.010324, NaN, NaN, NaN, 0.0384545, "- N/A -   "
6.19, 209.829, 0.0103989, NaN, NaN, NaN, 0.0433376, "- N/A -   "
6.24, 211.48, 0.0104795, NaN, NaN, NaN, 0.0433376, "- N/A -   "
6.29, 213.249, 0.0105655, NaN, NaN, NaN, 0.0433376, "- N/A -   "
6.34, 215.018, 0.0106516, NaN, NaN, NaN, 0.04089605, "- N/A -   "
6.39, 216.905, 0.010746, NaN, NaN, NaN, 0.03601294, "- N/A -   "
6.44, 218.6746, 0.0108349, NaN, NaN, NaN, 0.0347922, "- N/A -   "
6.49, 220.208, 0.010921, NaN, NaN, NaN, 0.0335714, "- N/A -   "
6.54, 221.977, 0.0110043, NaN, NaN, NaN, 0.0335714, "- N/A -   "
6.59, 223.51, 0.0110876, NaN, NaN, NaN, 0.0335714, "- N/A -   "
6.64, 225.162, 0.0111681, NaN, NaN, NaN, 0.0335714, "- N/A -   "
6.69, 226.813, 0.011257, NaN, NaN, NaN, 0.0323506, "- N/A -   "
6.74, 228.464, 0.0113347, NaN, NaN, NaN, 0.0335714, "- N/A -   "
6.79, 230.116, 0.011418, NaN, NaN, NaN, 0.0335714, "- N/A -   "
6.84, 231.885, 0.0115013, NaN, NaN, NaN, 0.0335714, "- N/A -   "
6.89, 233.3001, 0.0115791, NaN, NaN, NaN, 0.0372337, "- N/A -   "
6.94, 234.715, 0.011654, NaN, NaN, NaN, 0.0396753, "- N/A -   "
6.99, 236.485, 0.01173733, NaN, NaN, NaN, 0.04089605, "- N/A -   "
7.04, 237.9, 0.0118151, NaN, NaN, NaN, 0.0433376, "- N/A -   "
7.09, 239.905, 0.0118984, NaN, NaN, NaN, 0.04211683, "- N/A -   "
7.14, 241.674, 0.01199, NaN, NaN, NaN, 0.0384545, "- N/A -   "
7.19, 243.678, 0.0120816, NaN, NaN, NaN, 0.0347922, "- N/A -   "
7.24, 245.328, 0.0121649, NaN, NaN, NaN, 0.0347922, "- N/A -   "
7.29, 246.86, 0.0122483, NaN, NaN, NaN, 0.0347922, "- N/A -   "
7.34, 248.627, 0.0123371, NaN, NaN, NaN, 0.0323506, "- N/A -   "
7.39, 250.512, 0.0124287, NaN, NaN, NaN, 0.0286883, "- N/A -   "
7.44, 252.28, 0.01251482, NaN, NaN, NaN, 0.0286883, "- N/A -   "
7.49, 253.811, 0.0125898, NaN, NaN, NaN, 0.0323506, "- N/A -   "
7.54, 255.225, 0.012662, NaN, NaN, NaN, 0.03601294, "- N/A -   "
7.59, 256.403, 0.0127314, NaN, NaN, NaN, 0.0433376, "- N/A -   "
7.64, 258.053, 0.0128036, NaN, NaN, NaN, 0.0482207, "- N/A -   "
7.69, 259.7026, 0.0128869, NaN, NaN, NaN, 0.04699994, "- N/A -   "
7.74, 261.706, 0.0129813, NaN, NaN, NaN, 0.04211683, "- N/A -   "
7.79, 263.8265, 0.0130757, NaN, NaN, NaN, 0.0372337, "- N/A -   "
7.84, 265.83, 0.0131674, NaN, NaN, NaN, 0.0335714, "- N/A -   "
7.89, 267.597, 0.01325899, NaN, NaN, NaN, 0.0299091, "- N/A -   "
7.94, 269.364, 0.0133451, NaN, NaN, NaN, 0.0299091, "- N/A -   "
7.99, 271.014, 0.0134256, NaN, NaN, NaN, 0.0299091, "- N/A -   "
8, 271.25, 0.013445, NaN, NaN, NaN, 0.0286883, "- N/A -   "
8.01, 271.7209, 0.0134617, NaN, NaN, NaN, 0.0286883, "- N/A -   "
8.02, 272.192, 0.0134784, NaN, NaN, NaN, 0.0286883, "- N/A -   "
8.03, 272.428, 0.01349779, NaN, NaN, NaN, 0.0286883, "- N/A -   "
8.04, 272.7813, 0.0135145, NaN, NaN, NaN, 0.0274675, "- N/A -   "
8.05, 273.1348, 0.0135339, NaN, NaN, NaN, 0.0262467, "- N/A -   "
8.06, 273.606, 0.0135505, NaN, NaN, NaN, 0.0262467, "- N/A -   "
8.07, 273.96, 0.0135672, NaN, NaN, NaN, 0.0274675, "- N/A -   "
8.08, 274.195, 0.0135839, NaN, NaN, NaN, 0.0262467, "- N/A -   "
8.09, 274.549, 0.0136005, NaN, NaN, NaN, 0.0262467, "- N/A -   "
8.1, 275.02, 0.0136144, NaN, NaN, NaN, 0.0274675, "- N/A -   "
8.11, 275.138, 0.0136311, NaN, NaN, NaN, 0.0286883, "- N/A -   "
8.12, 275.4913, 0.013645, NaN, NaN, NaN, 0.0299091, "- N/A -   "
8.13, 275.727, 0.0136561, NaN, NaN, NaN, 0.03112983, "- N/A -   "
8.14, 275.963, 0.0136699, NaN, NaN, NaN, 0.0323506, "- N/A -   "
8.15, 276.3161, 0.0136838, NaN, NaN, NaN, 0.0347922, "- N/A -   "
8.16, 276.552, 0.0136977, NaN, NaN, NaN, 0.03601294, "- N/A -   "
8.17, 276.9052, 0.0137116, NaN, NaN, NaN, 0.0372337, "- N/A -   "
8.18, 277.141, 0.0137255, NaN, NaN, NaN, 0.0384545, "- N/A -   "
8.19, 277.494, 0.0137394, NaN, NaN, NaN, 0.0396753, "- N/A -   "
8.2, 277.73, 0.013756, NaN, NaN, NaN, 0.0396753, "- N/A -   "
8.21, 277.966, 0.0137699, NaN, NaN, NaN, 0.04089605, "- N/A -   "
8.23, 278.555, 0.0138005, NaN, NaN, NaN, 0.0433376, "- N/A -   "
8.25, 279.262, 0.013831, NaN, NaN, NaN, 0.0433376, "- N/A -   "
8.27, 279.851, 0.0138643, NaN, NaN, NaN, 0.0445584, "- N/A -   "
8.29, 280.558, 0.0138949, NaN, NaN, NaN, 0.0445584, "- N/A -   "
8.31, 281.2648, 0.0139282, NaN, NaN, NaN, 0.04577916, "- N/A -   "
8.33, 282.09, 0.0139615, NaN, NaN, NaN, 0.0445584, "- N/A -   "
8.35, 282.7965, 0.0139976, NaN, NaN, NaN, 0.0433376, "- N/A -   "
8.37, 283.503, 0.0140309, NaN, NaN, NaN, 0.0445584, "- N/A -   "
8.39, 284.21, 0.0140615, NaN, NaN, NaN, 0.0445584, "- N/A -   "
8.41, 284.917, 0.0140976, NaN, NaN, NaN, 0.0433376, "- N/A -   "
8.43, 285.7422, 0.0141337, NaN, NaN, NaN, 0.04211683, "- N/A -   "
8.45, 286.567, 0.0141698, NaN, NaN, NaN, 0.04211683, "- N/A -   "
8.47, 287.274, 0.0142059, NaN, NaN, NaN, 0.0396753, "- N/A -   "
8.49, 288.0987, 0.0142447, NaN, NaN, NaN, 0.0372337, "- N/A -   "
8.51, 289.041, 0.0142836, NaN, NaN, NaN, 0.0347922, "- N/A -   "
8.53, 289.8661, 0.0143253, NaN, NaN, NaN, 0.0323506, "- N/A -   "
8.55, 290.6909, 0.0143614, NaN, NaN, NaN, 0.0299091, "- N/A -   "
8.57, 291.516, 0.0143975, NaN, NaN, NaN, 0.0299091, "- N/A -   "
8.59, 292.105, 0.0144308, NaN, NaN, NaN, 0.0286883, "- N/A -   "
8.61, 292.812, 0.0144641, NaN, NaN, NaN, 0.0286883, "- N/A -   "
8.63, 293.519, 0.0144946, NaN, NaN, NaN, 0.0299091, "- N/A -   "
8.65, 294.226, 0.014528, NaN, NaN, NaN, 0.03112983, "- N/A -   "
8.67, 294.8148, 0.0145557, NaN, NaN, NaN, 0.0323506, "- N/A -   "
8.69, 295.404, 0.0145891, NaN, NaN, NaN, 0.0335714, "- N/A -   "
8.71, 296.111, 0.0146196, NaN, NaN, NaN, 0.0335714, "- N/A -   "
8.73, 296.936, 0.0146501, NaN, NaN, NaN, 0.0347922, "- N/A -   "
8.75, 297.407, 0.0146807, NaN, NaN, NaN, 0.03601294, "- N/A -   "
8.77, 298.114, 0.0147112, NaN, NaN, NaN, 0.0372337, "- N/A -   "
8.79, 298.821, 0.0147446, NaN, NaN, NaN, 0.0372337, "- N/A -   "
8.81, 299.646, 0.01478065, NaN, NaN, NaN, 0.03601294, "- N/A -   "
8.83, 300.353, 0.014814, NaN, NaN, NaN, 0.03601294, "- N/A -   "
8.85, 301.06, 0.0148473, NaN, NaN, NaN, 0.0372337, "- N/A -   "
8.87, 301.7665, 0.0148806, NaN, NaN, NaN, 0.03601294, "- N/A -   "
8.89, 302.356, 0.0149139, NaN, NaN, NaN, 0.0372337, "- N/A -   "
[...]
31.09, 1234.57, 0.0519225, NaN, NaN, NaN, 0.0323506, "- N/A -   "
31.25, 1241.606, 0.05219183, NaN, NaN, NaN, 0.03112983, "- N/A -   "
31.41, 1248.16, 0.05244729, NaN, NaN, NaN, 0.03601294, "- N/A -   "
31.57, 1254.6, 0.0526972, NaN, NaN, NaN, 0.0433376, "- N/A -   "
31.73, 1262.12, 0.0529804, NaN, NaN, NaN, 0.03601294, "- N/A -   "
31.89, 1269.27, 0.05326088, NaN, NaN, NaN, 0.03112983, "- N/A -   "
32.05, 1275.83, 0.05351356, NaN, NaN, NaN, 0.03601294, "- N/A -   "
32.21, 1282.27, 0.053769, NaN, NaN, NaN, 0.04211683, "- N/A -   "
32.37, 1289.31, 0.0540411, NaN, NaN, NaN, 0.0384545, "- N/A -   "
32.43, 1292.65, 0.0541605, NaN, NaN, NaN, 0.0299091, "- N/A -   "
32.44, 1293, 0.05418, NaN, NaN, NaN, 0.0299091, "- N/A -   "
32.45, 1293.36, 0.05419387, NaN, NaN, NaN, 0.0299091, "- N/A -   "
32.48, 1294.79, 0.0542466, NaN, NaN, NaN, 0.0299091, "- N/A -   "
32.51, 1295.985, 0.0542938, NaN, NaN, NaN, 0.03112983, "- N/A -   "
32.54, 1297.18, 0.054341, NaN, NaN, NaN, 0.03112983, "- N/A -   "
32.57, 1298.37, 0.05438824, NaN, NaN, NaN, 0.0323506, "- N/A -   "
32.6, 1299.56, 0.0544354, NaN, NaN, NaN, 0.0335714, "- N/A -   "
32.63, 1300.99, 0.05448543, NaN, NaN, NaN, 0.0335714, "- N/A -   "
32.66, 1302.07, 0.0545271, NaN, NaN, NaN, 0.0372337, "- N/A -   "
32.69, 1303.14, 0.0545743, NaN, NaN, NaN, 0.0384545, "- N/A -   "
32.72, 1304.45, 0.0546243, NaN, NaN, NaN, 0.0396753, "- N/A -   "
32.75, 1305.76, 0.054677, NaN, NaN, NaN, 0.0372337, "- N/A -   "
32.78, 1307.31, 0.054727, NaN, NaN, NaN, 0.0384545, "- N/A -   "
32.81, 1308.39, 0.05477421, NaN, NaN, NaN, 0.0384545, "- N/A -   "
32.84, 1309.46, 0.0548186, NaN, NaN, NaN, 0.04089605, "- N/A -   "
32.87, 1310.65, 0.05486584, NaN, NaN, NaN, 0.04211683, "- N/A -   "
32.9, 1311.85, 0.0549103, NaN, NaN, NaN, 0.0445584, "- N/A -   "
32.93, 1313.16, 0.05496025, NaN, NaN, NaN, 0.0445584, "- N/A -   "
32.96, 1314.59, 0.0550158, NaN, NaN, NaN, 0.04211683, "- N/A -   "
32.99, 1316.26, 0.0550741, NaN, NaN, NaN, 0.0384545, "- N/A -   "
33.02, 1317.57, 0.0551296, NaN, NaN, NaN, 0.03601294, "- N/A -   "
33.05, 1319, 0.0551852, NaN, NaN, NaN, 0.0347922, "- N/A -   "
33.08, 1320.43, 0.0552379, NaN, NaN, NaN, 0.0323506, "- N/A -   "
33.11, 1321.86, 0.0552907, NaN, NaN, NaN, 0.0323506, "- N/A -   "
33.14, 1323.055, 0.05534067, NaN, NaN, NaN, 0.03112983, "- N/A -   "
33.17, 1324.25, 0.0553851, NaN, NaN, NaN, 0.0335714, "- N/A -   "
33.2, 1325.32, 0.0554323, NaN, NaN, NaN, 0.0347922, "- N/A -   "
33.23, 1326.39, 0.05547395, NaN, NaN, NaN, 0.0384545, "- N/A -   "
33.26, 1327.71, 0.0555239, NaN, NaN, NaN, 0.0384545, "- N/A -   "
33.29, 1329.137, 0.0555795, NaN, NaN, NaN, 0.03601294, "- N/A -   "
33.32, 1330.69, 0.05563778, NaN, NaN, NaN, 0.0323506, "- N/A -   "
33.35, 1332.12, 0.05568776, NaN, NaN, NaN, 0.0323506, "- N/A -   "
33.38, 1333.55, 0.0557405, NaN, NaN, NaN, 0.03112983, "- N/A -   "
33.41, 1334.62, 0.05578495, NaN, NaN, NaN, 0.0335714, "- N/A -   "
33.44, 1335.7, 0.0558294, NaN, NaN, NaN, 0.03601294, "- N/A -   "
33.47, 1336.65, 0.05587103, NaN, NaN, NaN, 0.04089605, "- N/A -   "
33.5, 1337.72, 0.0559127, NaN, NaN, NaN, 0.0433376, "- N/A -   "
33.53, 1339.154, 0.0559654, NaN, NaN, NaN, 0.04211683, "- N/A -   "
33.56, 1340.7, 0.0560237, NaN, NaN, NaN, 0.0396753, "- N/A -   "
33.59, 1342.02, 0.056071, NaN, NaN, NaN, 0.0396753, "- N/A -   "
33.62, 1343.328, 0.0561209, NaN, NaN, NaN, 0.0396753, "- N/A -   "
33.65, 1344.4, 0.0561709, NaN, NaN, NaN, 0.04089605, "- N/A -   "
33.68, 1345.95, 0.0562237, NaN, NaN, NaN, 0.0384545, "- N/A -   "
33.71, 1347.38, 0.0562764, NaN, NaN, NaN, 0.0372337, "- N/A -   "
33.74, 1348.69, 0.056332, NaN, NaN, NaN, 0.03601294, "- N/A -   "
33.77, 1350.24, 0.0563875, NaN, NaN, NaN, 0.0323506, "- N/A -   "
33.8, 1351.32, 0.0564375, NaN, NaN, NaN, 0.0335714, "- N/A -   "
33.83, 1352.63, 0.0564847, NaN, NaN, NaN, 0.0335714, "- N/A -   "
33.86, 1353.94, 0.0565347, NaN, NaN, NaN, 0.0335714, "- N/A -   "
33.89, 1355.37, 0.0565874, NaN, NaN, NaN, 0.0323506, "- N/A -   "
33.92, 1356.565, 0.05663741, NaN, NaN, NaN, 0.0323506, "- N/A -   "
33.95, 1357.88, 0.0566846, NaN, NaN, NaN, 0.0335714, "- N/A -   "
33.98, 1359.07, 0.0567346, NaN, NaN, NaN, 0.0335714, "- N/A -   "
34.01, 1360.381, 0.0567846, NaN, NaN, NaN, 0.0335714, "- N/A -   "
34.04, 1361.45, 0.0568318, NaN, NaN, NaN, 0.03601294, "- N/A -   "
34.07, 1362.766, 0.056879, NaN, NaN, NaN, 0.03601294, "- N/A -   "
34.1, 1363.96, 0.056929, NaN, NaN, NaN, 0.03601294, "- N/A -   "
34.13, 1365.628, 0.0569817, NaN, NaN, NaN, 0.0347922, "- N/A -   "
34.16, 1366.7, 0.0570289, NaN, NaN, NaN, 0.03601294, "- N/A -   "
34.19, 1367.77, 0.05707336, NaN, NaN, NaN, 0.0384545, "- N/A -   "
34.22, 1369.09, 0.05712334, NaN, NaN, NaN, 0.0384545, "- N/A -   "
34.25, 1370.4, 0.0571705, NaN, NaN, NaN, 0.0396753, "- N/A -   "
34.28, 1371.59, 0.05722053, NaN, NaN, NaN, 0.0396753, "- N/A -   "
34.31, 1372.664, 0.057265, NaN, NaN, NaN, 0.04211683, "- N/A -   "
34.34, 1373.98, 0.05731216, NaN, NaN, NaN, 0.0433376, "- N/A -   "
34.37, 1375.29, 0.05736492, NaN, NaN, NaN, 0.04211683, "- N/A -   "
34.4, 1376.72, 0.05741768, NaN, NaN, NaN, 0.04089605, "- N/A -   "
34.43, 1378.27, 0.0574732, NaN, NaN, NaN, 0.0384545, "- N/A -   "
34.46, 1379.7, 0.05752875, NaN, NaN, NaN, 0.03601294, "- N/A -   "
34.49, 1381.25, 0.0575871, NaN, NaN, NaN, 0.0323506, "- N/A -   "
34.52, 1382.56, 0.05763704, NaN, NaN, NaN, 0.0323506, "- N/A -   "
34.55, 1383.87, 0.057687, NaN, NaN, NaN, 0.0323506, "- N/A -   "
34.58, 1385.07, 0.057737, NaN, NaN, NaN, 0.0323506, "- N/A -   "
34.61, 1386.38, 0.057787, NaN, NaN, NaN, 0.0323506, "- N/A -   "
34.64, 1387.69, 0.057837, NaN, NaN, NaN, 0.0323506, "- N/A -   "
34.67, 1389.12, 0.0578925, NaN, NaN, NaN, 0.0299091, "- N/A -   "
34.7, 1390.55, 0.05794526, NaN, NaN, NaN, 0.0286883, "- N/A -   "
34.73, 1391.86, 0.05799524, NaN, NaN, NaN, 0.0299091, "- N/A -   "
34.76, 1393.056, 0.05804522, NaN, NaN, NaN, 0.0299091, "- N/A -   "
34.79, 1394.37, 0.05809243, NaN, NaN, NaN, 0.03112983, "- N/A -   "
34.82, 1395.44, 0.0581369, NaN, NaN, NaN, 0.0323506, "- N/A -   "
34.85, 1396.51, 0.0581785, NaN, NaN, NaN, 0.03601294, "- N/A -   "
34.88, 1397.349, 0.0582174, NaN, NaN, NaN, 0.04089605, "- N/A -   "
34.91, 1398.54, 0.0582618, NaN, NaN, NaN, 0.0433376, "- N/A -   "
34.94, 1399.61, 0.058309, NaN, NaN, NaN, 0.04577916, "- N/A -   "
34.97, 1400.93, 0.0583534, NaN, NaN, NaN, 0.0482207, "- N/A -   "
35, 1402.36, 0.0584062, NaN, NaN, NaN, 0.04577916, "- N/A -   "
35.03, 1403.79, 0.0584645, NaN, NaN, NaN, 0.0433376, "- N/A -   "
35.06, 1405.339, 0.0585228, NaN, NaN, NaN, 0.0396753, "- N/A -   "
35.09, 1406.77, 0.0585784, NaN, NaN, NaN, 0.0372337, "- N/A -   "
35.12, 1408.2, 0.0586311, NaN, NaN, NaN, 0.0347922, "- N/A -   "
35.15, 1409.63, 0.05868665, NaN, NaN, NaN, 0.0323506, "- N/A -   "
35.18, 1410.94, 0.0587366, NaN, NaN, NaN, 0.0323506, "- N/A -   "
35.21, 1412.37, 0.0587894, NaN, NaN, NaN, 0.03112983, "- N/A -   "
35.24, 1413.69, 0.0588449, NaN, NaN, NaN, 0.0299091, "- N/A -   "
35.27, 1415.12, 0.0588977, NaN, NaN, NaN, 0.0286883, "- N/A -   "
35.3, 1416.43, 0.0589477, NaN, NaN, NaN, 0.0299091, "- N/A -   "
35.33, 1417.622, 0.05899487, NaN, NaN, NaN, 0.0299091, "- N/A -   "
35.36, 1418.93, 0.0590449, NaN, NaN, NaN, 0.0299091, "- N/A -   "
35.39, 1420.13, 0.05909206, NaN, NaN, NaN, 0.03112983, "- N/A -   "
35.42, 1421.32, 0.0591393, NaN, NaN, NaN, 0.0335714, "- N/A -   "
35.45, 1422.39, 0.0591809, NaN, NaN, NaN, 0.03601294, "- N/A -   "
35.48, 1423.47, 0.0592226, NaN, NaN, NaN, 0.0396753, "- N/A -   "
35.51, 1424.54, 0.05926977, NaN, NaN, NaN, 0.04211683, "- N/A -   "
35.54, 1425.61, 0.0593142, NaN, NaN, NaN, 0.0433376, "- N/A -   "
35.57, 1426.8, 0.05935863, NaN, NaN, NaN, 0.04577916, "- N/A -   "
35.6, 1428.12, 0.0594114, NaN, NaN, NaN, 0.0445584, "- N/A -   "
35.63, 1429.55, 0.0594641, NaN, NaN, NaN, 0.0433376, "- N/A -   "
35.66, 1430.86, 0.05951135, NaN, NaN, NaN, 0.04577916, "- N/A -   "
35.69, 1432.17, 0.0595641, NaN, NaN, NaN, 0.0445584, "- N/A -   "
35.72, 1433.36, 0.05961409, NaN, NaN, NaN, 0.0433376, "- N/A -   "
35.75, 1434.91, 0.0596668, NaN, NaN, NaN, 0.0433376, "- N/A -   "
35.78, 1436.34, 0.0597224, NaN, NaN, NaN, 0.0396753, "- N/A -   "
35.81, 1437.78, 0.0597779, NaN, NaN, NaN, 0.0372337, "- N/A -   "
35.84, 1439.33, 0.05983623, NaN, NaN, NaN, 0.0335714, "- N/A -   "
35.87, 1440.88, 0.0598973, NaN, NaN, NaN, 0.0299091, "- N/A -   "
35.9, 1442.43, 0.05995285, NaN, NaN, NaN, 0.0274675, "- N/A -   "
35.93, 1443.5, 0.0600001, NaN, NaN, NaN, 0.0274675, "- N/A -   "
35.96, 1444.81, 0.06005004, NaN, NaN, NaN, 0.0274675, "- N/A -   "
35.966, 1445.05, 0.0600584, NaN, NaN, NaN, 0.0286883, "- N/A -   "