File: 2_Tensile_Data/Hamel_ForceTest_Bolt10_Test5.csv
Time, Load (lb), Position (in), AxialStrain (in), TransverseStrain (in), Auxiliary (), Control Out (V), Stress (psi)
0.0, 1.41537, 0.0, NaN, NaN, NaN, 0.09094793, "- N/A -   "
0.01, 1.88716, 2.49908e-05, NaN, NaN, NaN, 0.09949338, "- N/A -   "
0.02, 2.35895, 5.27583e-05, NaN, NaN, NaN, 0.108039, "- N/A -   "
0.03, 2.94869, 7.774905E-5, NaN, NaN, NaN, 0.103156, "- N/A -   "
0.04, 3.53842, 0.000105517, NaN, NaN, NaN, 0.0982726, "- N/A -   "
0.05, 4.246109, 0.000133284, NaN, NaN, NaN, 0.09338949, "- N/A -   "
0.06, 4.59995, 1.610516E-4, NaN, NaN, NaN, 0.0897272, "- N/A -   "
0.07, 5.18969, 0.000183266, NaN, NaN, NaN, 0.0872856, "- N/A -   "
0.08, 5.66148, 0.000208256, NaN, NaN, NaN, 0.08362327, "- N/A -   "
0.09, 6.13327, 0.000233247, NaN, NaN, NaN, 0.0799609, "- N/A -   "
0.1, 6.723006, 2.582379E-4, NaN, NaN, NaN, 0.0762986, "- N/A -   "
0.11, 7.1948, 2.832287E-4, NaN, NaN, NaN, 0.07141549, "- N/A -   "
0.12, 7.666586, 0.000308219, NaN, NaN, NaN, 0.06775316, "- N/A -   "
0.13, 8.256323, 0.000335987, NaN, NaN, NaN, 0.0640908, "- N/A -   "
0.14, 8.846061, 0.000360978, NaN, NaN, NaN, 0.0592077, "- N/A -   "
0.15, 9.199903, 3.859685E-4, NaN, NaN, NaN, 0.05676616, "- N/A -   "
0.16, 9.671693, 4.081825E-4, NaN, NaN, NaN, 0.0543246, "- N/A -   "
0.17, 10.0255, 4.276198E-4, NaN, NaN, NaN, 0.05188305, "- N/A -   "
0.18, 10.4973, 0.000449834, NaN, NaN, NaN, 0.0494415, "- N/A -   "
0.19, 10.9691, 4.720478E-4, NaN, NaN, NaN, 0.0482207, "- N/A -   "
0.2, 11.323, 0.000491485, NaN, NaN, NaN, 0.04699994, "- N/A -   "
0.21, 11.7947, 0.000510922, NaN, NaN, NaN, 0.04577916, "- N/A -   "
0.22, 12.0306, 0.000527583, NaN, NaN, NaN, 0.0445584, "- N/A -   "
0.23, 12.3845, 5.442434E-4, NaN, NaN, NaN, 0.0445584, "- N/A -   "
0.24, 12.7383, 5.664574E-4, NaN, NaN, NaN, 0.0433376, "- N/A -   "
0.25, 13.2101, 5.858946E-4, NaN, NaN, NaN, 0.04089605, "- N/A -   "
0.26, 13.564, 6.053319E-4, NaN, NaN, NaN, 0.04089605, "- N/A -   "
0.27, 14.0357, 0.000624769, NaN, NaN, NaN, 0.0396753, "- N/A -   "
0.28, 14.3896, 6.442064E-4, NaN, NaN, NaN, 0.0372337, "- N/A -   "
0.29, 14.7434, 6.636437E-4, NaN, NaN, NaN, 0.03601294, "- N/A -   "
0.3, 15.2152, 6.858577E-4, NaN, NaN, NaN, 0.0335714, "- N/A -   "
0.31, 15.5691, 0.000705295, NaN, NaN, NaN, 0.0323506, "- N/A -   "
0.32, 15.9229, 7.219555E-4, NaN, NaN, NaN, 0.0323506, "- N/A -   "
0.33, 16.3947, 7.413927E-4, NaN, NaN, NaN, 0.03112983, "- N/A -   "
0.34, 16.6306, 7.6083E-4, NaN, NaN, NaN, 0.0299091, "- N/A -   "
0.35, 16.9844, 0.000780267, NaN, NaN, NaN, 0.0299091, "- N/A -   "
0.36, 17.3383, 0.000794151, NaN, NaN, NaN, 0.0299091, "- N/A -   "
0.37, 17.6921, 8.108115E-4, NaN, NaN, NaN, 0.0299091, "- N/A -   "
0.38, 17.928, 8.27472E-4, NaN, NaN, NaN, 0.03112983, "- N/A -   "
0.39, 18.3998, 8.413558E-4, NaN, NaN, NaN, 0.0323506, "- N/A -   "
0.4, 18.5178, 8.552396E-4, NaN, NaN, NaN, 0.0323506, "- N/A -   "
0.41, 18.8716, 0.0008719, NaN, NaN, NaN, 0.0323506, "- N/A -   "
0.46, 20.4049, 0.000949649, NaN, NaN, NaN, 0.0347922, "- N/A -   "
0.51, 21.7023, 0.00102184, NaN, NaN, NaN, 0.0396753, "- N/A -   "
0.56, 23.2357, 0.00109404, NaN, NaN, NaN, 0.0445584, "- N/A -   "
0.61, 24.769, 0.00117179, NaN, NaN, NaN, 0.04699994, "- N/A -   "
0.66, 26.5382, 0.00126065, NaN, NaN, NaN, 0.04577916, "- N/A -   "
0.71, 28.42534, 0.00135505, NaN, NaN, NaN, 0.0396753, "- N/A -   "
0.76, 30.3125, 0.00144669, NaN, NaN, NaN, 0.03601294, "- N/A -   "
0.81, 31.8458, 0.001532767, NaN, NaN, NaN, 0.0347922, "- N/A -   "
0.86, 33.61503, 0.00161885, NaN, NaN, NaN, 0.0347922, "- N/A -   "
0.91, 35.3842, 0.0017077, NaN, NaN, NaN, 0.03112983, "- N/A -   "
0.96, 36.9176, 0.001791, NaN, NaN, NaN, 0.03112983, "- N/A -   "
1.01, 38.68677, 0.00187708, NaN, NaN, NaN, 0.0299091, "- N/A -   "
1.06, 40.22009, 0.00195761, NaN, NaN, NaN, 0.03112983, "- N/A -   "
1.11, 41.6355, 0.00202981, NaN, NaN, NaN, 0.0372337, "- N/A -   "
1.16, 43.0508, 0.002102001, NaN, NaN, NaN, 0.04089605, "- N/A -   "
1.21, 44.58414, 0.00217975, NaN, NaN, NaN, 0.0445584, "- N/A -   "
1.26, 46.23541, 0.00226305, NaN, NaN, NaN, 0.0433376, "- N/A -   "
1.31, 47.7687, 0.00234358, NaN, NaN, NaN, 0.04577916, "- N/A -   "
1.36, 49.41999, 0.0024241, NaN, NaN, NaN, 0.04577916, "- N/A -   "
1.41, 51.1892, 0.00251574, NaN, NaN, NaN, 0.04211683, "- N/A -   "
1.46, 53.0764, 0.00261015, NaN, NaN, NaN, 0.0372337, "- N/A -   "
1.51, 54.9635, 0.002707333, NaN, NaN, NaN, 0.03112983, "- N/A -   "
1.56, 56.6148, 0.00279619, NaN, NaN, NaN, 0.0286883, "- N/A -   "
1.61, 58.26605, 0.00287949, NaN, NaN, NaN, 0.0299091, "- N/A -   "
1.66, 59.79937, 0.002954464, NaN, NaN, NaN, 0.0323506, "- N/A -   "
1.71, 61.3327, 0.00302944, NaN, NaN, NaN, 0.0372337, "- N/A -   "
1.76, 62.98395, 0.003112739, NaN, NaN, NaN, 0.03601294, "- N/A -   "
1.81, 64.6352, 0.00319326, NaN, NaN, NaN, 0.0372337, "- N/A -   "
1.86, 66.05058, 0.003268237, NaN, NaN, NaN, 0.04089605, "- N/A -   "
1.91, 67.5839, 0.00334876, NaN, NaN, NaN, 0.04211683, "- N/A -   "
1.96, 69.23517, 0.00342929, NaN, NaN, NaN, 0.0433376, "- N/A -   "
2.01, 70.7685, 0.00351259, NaN, NaN, NaN, 0.0433376, "- N/A -   "
2.06, 72.77359, 0.003607, NaN, NaN, NaN, 0.0384545, "- N/A -   "
2.11, 74.7787, 0.003704187, NaN, NaN, NaN, 0.0323506, "- N/A -   "
2.16, 76.6659, 0.00379582, NaN, NaN, NaN, 0.0286883, "- N/A -   "
2.21, 78.19917, 0.003873569, NaN, NaN, NaN, 0.03112983, "- N/A -   "
2.26, 79.61454, 0.003948541, NaN, NaN, NaN, 0.0347922, "- N/A -   "
2.31, 81.26581, 0.00403184, NaN, NaN, NaN, 0.0347922, "- N/A -   "
2.36, 83.03502, 0.0041207, NaN, NaN, NaN, 0.0335714, "- N/A -   "
2.41, 84.68629, 0.004204002, NaN, NaN, NaN, 0.0323506, "- N/A -   "
2.46, 86.33755, 0.004284528, NaN, NaN, NaN, 0.0347922, "- N/A -   "
2.51, 87.63497, 0.004353947, NaN, NaN, NaN, 0.0396753, "- N/A -   "
2.56, 89.16828, 0.004434473, NaN, NaN, NaN, 0.04211683, "- N/A -   "
2.61, 91.05545, 0.004515, NaN, NaN, NaN, 0.04211683, "- N/A -   "
2.66, 92.70671, 0.004601078, NaN, NaN, NaN, 0.04089605, "- N/A -   "
2.71, 94.47592, 0.004687157, NaN, NaN, NaN, 0.0396753, "- N/A -   "
2.76, 96.24514, 0.00477601, NaN, NaN, NaN, 0.0372337, "- N/A -   "
2.81, 97.8964, 0.004859315, NaN, NaN, NaN, 0.0372337, "- N/A -   "
2.86, 99.42972, 0.004942619, NaN, NaN, NaN, 0.0372337, "- N/A -   "
2.91, 101.199, 0.005028697, NaN, NaN, NaN, 0.03601294, "- N/A -   "
2.96, 102.968, 0.005123107, NaN, NaN, NaN, 0.0323506, "- N/A -   "
3.01, 104.619, 0.005203633, NaN, NaN, NaN, 0.0323506, "- N/A -   "
3.06, 106.035, 0.00528694, NaN, NaN, NaN, 0.0323506, "- N/A -   "
3.11, 107.804, 0.005370238, NaN, NaN, NaN, 0.0323506, "- N/A -   "
3.16, 109.219, 0.00545076, NaN, NaN, NaN, 0.0335714, "- N/A -   "
3.21, 110.753, 0.00553129, NaN, NaN, NaN, 0.0347922, "- N/A -   "
3.26, 112.168, 0.005609039, NaN, NaN, NaN, 0.0372337, "- N/A -   "
3.31, 113.819, 0.00569234, NaN, NaN, NaN, 0.0372337, "- N/A -   "
3.36, 115.117, 0.00576454, NaN, NaN, NaN, 0.04211683, "- N/A -   "
3.41, 116.768, 0.005845062, NaN, NaN, NaN, 0.0433376, "- N/A -   "
3.46, 118.419, 0.0059367, NaN, NaN, NaN, 0.04089605, "- N/A -   "
3.51, 120.306, 0.00603111, NaN, NaN, NaN, 0.03601294, "- N/A -   "
3.56, 122.076, 0.00612274, NaN, NaN, NaN, 0.0335714, "- N/A -   "
3.61, 123.491, 0.006203264, NaN, NaN, NaN, 0.0335714, "- N/A -   "
3.66, 125.142, 0.006281012, NaN, NaN, NaN, 0.03601294, "- N/A -   "
3.71, 126.794, 0.00636987, NaN, NaN, NaN, 0.0335714, "- N/A -   "
3.76, 128.563, 0.00645872, NaN, NaN, NaN, 0.03112983, "- N/A -   "
3.81, 129.86, 0.00653925, NaN, NaN, NaN, 0.0335714, "- N/A -   "
3.86, 131.511, 0.006619776, NaN, NaN, NaN, 0.0347922, "- N/A -   "
3.91, 132.809, 0.00669197, NaN, NaN, NaN, 0.0396753, "- N/A -   "
3.96, 134.106, 0.006764168, NaN, NaN, NaN, 0.0433376, "- N/A -   "
4.01, 135.64, 0.00683914, NaN, NaN, NaN, 0.0482207, "- N/A -   "
4.06, 137.291, 0.006928, NaN, NaN, NaN, 0.0445584, "- N/A -   "
4.11, 139.06, 0.007022406, NaN, NaN, NaN, 0.0396753, "- N/A -   "
4.16, 140.829, 0.007111262, NaN, NaN, NaN, 0.0372337, "- N/A -   "
4.21, 142.3626, 0.007200118, NaN, NaN, NaN, 0.03601294, "- N/A -   "
4.26, 144.014, 0.007280643, NaN, NaN, NaN, 0.03601294, "- N/A -   "
4.31, 145.665, 0.00737505, NaN, NaN, NaN, 0.03112983, "- N/A -   "
4.36, 147.434, 0.00746113, NaN, NaN, NaN, 0.0299091, "- N/A -   "
4.41, 148.8497, 0.00754443, NaN, NaN, NaN, 0.0299091, "- N/A -   "
4.46, 150.501, 0.007624961, NaN, NaN, NaN, 0.03112983, "- N/A -   "
4.51, 151.798, 0.007702709, NaN, NaN, NaN, 0.0335714, "- N/A -   "
4.56, 153.096, 0.00777491, NaN, NaN, NaN, 0.0384545, "- N/A -   "
4.61, 154.393, 0.0078471, NaN, NaN, NaN, 0.0433376, "- N/A -   "
4.66, 155.927, 0.007927627, NaN, NaN, NaN, 0.04577916, "- N/A -   "
4.71, 157.696, 0.008016483, NaN, NaN, NaN, 0.04211683, "- N/A -   "
4.76, 159.111, 0.008099785, NaN, NaN, NaN, 0.04211683, "- N/A -   "
4.81, 160.88, 0.008185865, NaN, NaN, NaN, 0.04089605, "- N/A -   "
4.86, 162.65, 0.008285827, NaN, NaN, NaN, 0.0347922, "- N/A -   "
4.91, 164.537, 0.008377461, NaN, NaN, NaN, 0.0299091, "- N/A -   "
4.96, 166.188, 0.008457986, NaN, NaN, NaN, 0.03112983, "- N/A -   "
5.01, 167.603, 0.008541289, NaN, NaN, NaN, 0.03112983, "- N/A -   "
5.06, 169.019, 0.008624592, NaN, NaN, NaN, 0.0323506, "- N/A -   "
5.11, 170.552, 0.008699563, NaN, NaN, NaN, 0.0347922, "- N/A -   "
5.16, 172.085, 0.008780089, NaN, NaN, NaN, 0.0372337, "- N/A -   "
5.21, 173.737, 0.00886617, NaN, NaN, NaN, 0.0347922, "- N/A -   "
5.26, 175.152, 0.008941141, NaN, NaN, NaN, 0.0384545, "- N/A -   "
5.31, 176.6853, 0.009016113, NaN, NaN, NaN, 0.04211683, "- N/A -   "
5.36, 177.983, 0.009093862, NaN, NaN, NaN, 0.0445584, "- N/A -   "
5.41, 179.634, 0.009177165, NaN, NaN, NaN, 0.0445584, "- N/A -   "
5.46, 181.521, 0.009271574, NaN, NaN, NaN, 0.0396753, "- N/A -   "
5.51, 183.408, 0.009371538, NaN, NaN, NaN, 0.0323506, "- N/A -   "
5.56, 185.178, 0.009460394, NaN, NaN, NaN, 0.0299091, "- N/A -   "
5.61, 186.593, 0.009538142, NaN, NaN, NaN, 0.0323506, "- N/A -   "
5.66, 188.1262, 0.009615892, NaN, NaN, NaN, 0.03601294, "- N/A -   "
5.71, 189.66, 0.00969364, NaN, NaN, NaN, 0.0372337, "- N/A -   "
5.76, 191.429, 0.009785273, NaN, NaN, NaN, 0.0335714, "- N/A -   "
5.81, 193.08, 0.009868576, NaN, NaN, NaN, 0.0335714, "- N/A -   "
5.86, 194.613, 0.009951878, NaN, NaN, NaN, 0.0347922, "- N/A -   "
5.91, 196.147, 0.0100296, NaN, NaN, NaN, 0.03601294, "- N/A -   "
5.96, 197.68, 0.0101046, NaN, NaN, NaN, 0.0396753, "- N/A -   "
6.01, 199.095, 0.0101823, NaN, NaN, NaN, 0.0433376, "- N/A -   "
6.06, 200.865, 0.0102712, NaN, NaN, NaN, 0.04089605, "- N/A -   "
6.11, 202.634, 0.0103573, NaN, NaN, NaN, 0.0384545, "- N/A -   "
6.16, 204.285, 0.0104434, NaN, NaN, NaN, 0.0372337, "- N/A -   "
6.21, 205.936, 0.0105267, NaN, NaN, NaN, 0.0384545, "- N/A -   "
6.26, 207.705, 0.0106127, NaN, NaN, NaN, 0.03601294, "- N/A -   "
6.31, 209.475, 0.0106988, NaN, NaN, NaN, 0.0347922, "- N/A -   "
6.36, 211.244, 0.0107905, NaN, NaN, NaN, 0.03112983, "- N/A -   "
6.41, 212.777, 0.010871, NaN, NaN, NaN, 0.0323506, "- N/A -   "
6.46, 214.4285, 0.0109543, NaN, NaN, NaN, 0.0335714, "- N/A -   "
6.51, 216.08, 0.011032, NaN, NaN, NaN, 0.0347922, "- N/A -   "
6.56, 217.849, 0.0111181, NaN, NaN, NaN, 0.0335714, "- N/A -   "
6.61, 219.5, 0.0112014, NaN, NaN, NaN, 0.0335714, "- N/A -   "
6.66, 220.916, 0.0112736, NaN, NaN, NaN, 0.0384545, "- N/A -   "
6.71, 222.567, 0.0113569, NaN, NaN, NaN, 0.0384545, "- N/A -   "
6.76, 224.1002, 0.0114347, NaN, NaN, NaN, 0.04211683, "- N/A -   "
6.81, 225.751, 0.0115124, NaN, NaN, NaN, 0.0445584, "- N/A -   "
6.86, 227.639, 0.0116013, NaN, NaN, NaN, 0.04089605, "- N/A -   "
6.91, 229.526, 0.0116957, NaN, NaN, NaN, 0.03601294, "- N/A -   "
6.96, 231.413, 0.0117873, NaN, NaN, NaN, 0.0323506, "- N/A -   "
6.99, 232.474, 0.0118373, NaN, NaN, NaN, 0.0335714, "- N/A -   "
7, 232.71, 0.0118512, NaN, NaN, NaN, 0.0335714, "- N/A -   "
7.01, 233.182, 0.0118678, NaN, NaN, NaN, 0.0335714, "- N/A -   "
7.18, 239.197, 0.0121622, NaN, NaN, NaN, 0.0286883, "- N/A -   "
7.35, 244.2674, 0.0124149, NaN, NaN, NaN, 0.04211683, "- N/A -   "
7.52, 250.394, 0.01270364, NaN, NaN, NaN, 0.0396753, "- N/A -   "
7.69, 256.757, 0.0130063, NaN, NaN, NaN, 0.03112983, "- N/A -   "
7.86, 262.766, 0.0132951, NaN, NaN, NaN, 0.0299091, "- N/A -   "
8.03, 267.8326, 0.0135422, NaN, NaN, NaN, 0.0445584, "- N/A -   "
8.2, 274.431, 0.0138393, NaN, NaN, NaN, 0.0396753, "- N/A -   "
8.37, 280.911, 0.0141476, NaN, NaN, NaN, 0.0286883, "- N/A -   "
8.54, 286.8026, 0.0144141, NaN, NaN, NaN, 0.03601294, "- N/A -   "
8.71, 292.6939, 0.01468624, NaN, NaN, NaN, 0.04211683, "- N/A -   "
8.88, 299.057, 0.0149778, NaN, NaN, NaN, 0.0372337, "- N/A -   "
9.05, 305.6548, 0.0152721, NaN, NaN, NaN, 0.0323506, "- N/A -   "
9.22, 311.9, 0.0155554, NaN, NaN, NaN, 0.0323506, "- N/A -   "
9.39, 317.4374, 0.0158136, NaN, NaN, NaN, 0.0433376, "- N/A -   "
9.56, 324.2713, 0.0161107, NaN, NaN, NaN, 0.0372337, "- N/A -   "
9.73, 330.6339, 0.0163967, NaN, NaN, NaN, 0.03601294, "- N/A -   "
9.9, 337.114, 0.0166855, NaN, NaN, NaN, 0.0335714, "- N/A -   "
10.07, 343.477, 0.0169632, NaN, NaN, NaN, 0.03601294, "- N/A -   "
10.24, 349.486, 0.0172297, NaN, NaN, NaN, 0.0445584, "- N/A -   "
10.41, 356.438, 0.017538, NaN, NaN, NaN, 0.0323506, "- N/A -   "
10.58, 363.154, 0.0178351, NaN, NaN, NaN, 0.0262467, "- N/A -   "
10.75, 368.81, 0.0180878, NaN, NaN, NaN, 0.0396753, "- N/A -   "
10.92, 375.29, 0.0183682, NaN, NaN, NaN, 0.04089605, "- N/A -   "
11.09, 382.242, 0.0186681, NaN, NaN, NaN, 0.0335714, "- N/A -   "
11.26, 388.958, 0.0189597, NaN, NaN, NaN, 0.0299091, "- N/A -   "
11.43, 394.613, 0.0192123, NaN, NaN, NaN, 0.0445584, "- N/A -   "
11.6, 401.212, 0.0194956, NaN, NaN, NaN, 0.0445584, "- N/A -   "
11.77, 408.7526, 0.0198121, NaN, NaN, NaN, 0.0286883, "- N/A -   "
11.94, 414.997, 0.0200842, NaN, NaN, NaN, 0.0335714, "- N/A -   "
12.11, 421.596, 0.0203619, NaN, NaN, NaN, 0.03601294, "- N/A -   "
12.28, 427.958, 0.0206368, NaN, NaN, NaN, 0.04089605, "- N/A -   "
12.45, 435.028, 0.0209339, NaN, NaN, NaN, 0.0347922, "- N/A -   "
12.62, 441.2726, 0.0212033, NaN, NaN, NaN, 0.04089605, "- N/A -   "
12.79, 448.224, 0.0214921, NaN, NaN, NaN, 0.0384545, "- N/A -   "
12.96, 455.058, 0.0217753, NaN, NaN, NaN, 0.0384545, "- N/A -   "
13.13, 461.774, 0.02206407, NaN, NaN, NaN, 0.03601294, "- N/A -   "
13.3, 468.962, 0.0223612, NaN, NaN, NaN, 0.03112983, "- N/A -   "
13.47, 475.324, 0.0226305, NaN, NaN, NaN, 0.03601294, "- N/A -   "
13.64, 481.687, 0.02289432, NaN, NaN, NaN, 0.0445584, "- N/A -   "
13.81, 489.2278, 0.0232025, NaN, NaN, NaN, 0.0335714, "- N/A -   "
13.98, 496.18, 0.0234941, NaN, NaN, NaN, 0.03112983, "- N/A -   "
14.15, 502.542, 0.0237551, NaN, NaN, NaN, 0.0396753, "- N/A -   "
14.32, 509.14, 0.0240328, NaN, NaN, NaN, 0.0433376, "- N/A -   "
14.49, 516.8118, 0.024341, NaN, NaN, NaN, 0.03112983, "- N/A -   "
14.66, 524.027, 0.0246326, NaN, NaN, NaN, 0.0274675, "- N/A -   "
14.83, 529.823, 0.0248852, NaN, NaN, NaN, 0.04089605, "- N/A -   "
15, 536.9196, 0.0251657, NaN, NaN, NaN, 0.04211683, "- N/A -   "
15.17, 544.608, 0.0254795, NaN, NaN, NaN, 0.0286883, "- N/A -   "
15.34, 551.35, 0.025746, NaN, NaN, NaN, 0.03601294, "- N/A -   "
15.51, 558.21, 0.0260209, NaN, NaN, NaN, 0.0396753, "- N/A -   "
15.68, 565.1887, 0.0263069, NaN, NaN, NaN, 0.0396753, "- N/A -   "
15.85, 572.7587, 0.0266096, NaN, NaN, NaN, 0.0299091, "- N/A -   "
16.02, 579.5007, 0.0268873, NaN, NaN, NaN, 0.0323506, "- N/A -   "
16.19, 586.124, 0.02715108, NaN, NaN, NaN, 0.04089605, "- N/A -   "
16.36, 593.3396, 0.0274371, NaN, NaN, NaN, 0.0396753, "- N/A -   "
16.53, 600.673, 0.02773142, NaN, NaN, NaN, 0.0347922, "- N/A -   "
16.7, 607.8881, 0.0280174, NaN, NaN, NaN, 0.0335714, "- N/A -   "
16.87, 614.7484, 0.0282951, NaN, NaN, NaN, 0.03601294, "- N/A -   "
17.04, 621.609, 0.0285644, NaN, NaN, NaN, 0.04211683, "- N/A -   "
17.21, 629.297, 0.0288754, NaN, NaN, NaN, 0.03112983, "- N/A -   "
17.38, 636.5121, 0.0291642, NaN, NaN, NaN, 0.0299091, "- N/A -   "
17.55, 643.1358, 0.029428, NaN, NaN, NaN, 0.0372337, "- N/A -   "
17.72, 649.8778, 0.0296946, NaN, NaN, NaN, 0.0445584, "- N/A -   "
17.89, 657.448, 0.0299945, NaN, NaN, NaN, 0.0372337, "- N/A -   "
18.06, 664.8995, 0.0302888, NaN, NaN, NaN, 0.0323506, "- N/A -   "
18.23, 671.2866, 0.030547, NaN, NaN, NaN, 0.0445584, "- N/A -   "
18.4, 678.5018, 0.03083583, NaN, NaN, NaN, 0.04089605, "- N/A -   "
18.57, 686.545, 0.031144, NaN, NaN, NaN, 0.0299091, "- N/A -   "
18.74, 693.523, 0.0314217, NaN, NaN, NaN, 0.0323506, "- N/A -   "
18.91, 700.502, 0.0316938, NaN, NaN, NaN, 0.0372337, "- N/A -   "
19.08, 707.007, 0.0319549, NaN, NaN, NaN, 0.04699994, "- N/A -   "
19.25, 715.2871, 0.0322714, NaN, NaN, NaN, 0.0323506, "- N/A -   "
19.42, 722.384, 0.0325546, NaN, NaN, NaN, 0.0335714, "- N/A -   "
19.59, 729.126, 0.0328212, NaN, NaN, NaN, 0.0396753, "- N/A -   "
19.76, 736.5777, 0.03310721, NaN, NaN, NaN, 0.0384545, "- N/A -   "
19.93, 743.7928, 0.03339322, NaN, NaN, NaN, 0.0372337, "- N/A -   "
20.1, 751.363, 0.0336876, NaN, NaN, NaN, 0.0323506, "- N/A -   "
20.27, 758.5779, 0.03397356, NaN, NaN, NaN, 0.03112983, "- N/A -   "
20.44, 764.7285, 0.0342235, NaN, NaN, NaN, 0.04577916, "- N/A -   "
20.61, 773.126, 0.0345372, NaN, NaN, NaN, 0.0335714, "- N/A -   "
20.78, 780.223, 0.0348205, NaN, NaN, NaN, 0.0323506, "- N/A -   "
20.95, 787.3201, 0.0350954, NaN, NaN, NaN, 0.03601294, "- N/A -   "
21.12, 793.9439, 0.03535916, NaN, NaN, NaN, 0.04577916, "- N/A -   "
21.29, 801.987, 0.03566738, NaN, NaN, NaN, 0.0347922, "- N/A -   "
21.46, 809.675, 0.03596449, NaN, NaN, NaN, 0.0274675, "- N/A -   "
21.63, 816.0624, 0.03621995, NaN, NaN, NaN, 0.04089605, "- N/A -   "
21.8, 823.159, 0.0364976, NaN, NaN, NaN, 0.0433376, "- N/A -   "
21.97, 831.3206, 0.0368058, NaN, NaN, NaN, 0.0323506, "- N/A -   "
22.14, 838.536, 0.0370863, NaN, NaN, NaN, 0.0347922, "- N/A -   "
22.31, 845.396, 0.0373556, NaN, NaN, NaN, 0.0396753, "- N/A -   "
22.48, 852.4929, 0.0376278, NaN, NaN, NaN, 0.0445584, "- N/A -   "
22.65, 860.536, 0.0379443, NaN, NaN, NaN, 0.0299091, "- N/A -   "
22.82, 867.751, 0.03822199, NaN, NaN, NaN, 0.0323506, "- N/A -   "
22.99, 874.6114, 0.0384913, NaN, NaN, NaN, 0.0384545, "- N/A -   "
23.16, 881.827, 0.0387718, NaN, NaN, NaN, 0.0396753, "- N/A -   "
23.33, 889.16, 0.03905779, NaN, NaN, NaN, 0.0384545, "- N/A -   "
23.5, 896.8482, 0.03934935, NaN, NaN, NaN, 0.0347922, "- N/A -   "
23.67, 904.182, 0.0396381, NaN, NaN, NaN, 0.0323506, "- N/A -   "
23.84, 910.6871, 0.03989637, NaN, NaN, NaN, 0.0445584, "- N/A -   "
24.01, 919.085, 0.0402074, NaN, NaN, NaN, 0.03112983, "- N/A -   "
24.18, 926.3001, 0.0404934, NaN, NaN, NaN, 0.0299091, "- N/A -   "
24.35, 933.2787, 0.0407655, NaN, NaN, NaN, 0.0347922, "- N/A -   "
24.52, 940.021, 0.04102651, NaN, NaN, NaN, 0.0445584, "- N/A -   "
24.69, 947.709, 0.0413292, NaN, NaN, NaN, 0.03601294, "- N/A -   "
24.86, 955.3972, 0.0416291, NaN, NaN, NaN, 0.0286883, "- N/A -   "
25.03, 962.021, 0.0418929, NaN, NaN, NaN, 0.0372337, "- N/A -   "
25.2, 968.8813, 0.0421622, NaN, NaN, NaN, 0.0445584, "- N/A -   "
25.37, 977.2792, 0.0424843, NaN, NaN, NaN, 0.0274675, "- N/A -   "
25.54, 984.2578, 0.0427564, NaN, NaN, NaN, 0.0323506, "- N/A -   "
25.71, 991.2363, 0.04302855, NaN, NaN, NaN, 0.03601294, "- N/A -   "
25.88, 998.0966, 0.04330067, NaN, NaN, NaN, 0.04211683, "- N/A -   "
26.05, 1005.9, 0.04360056, NaN, NaN, NaN, 0.0335714, "- N/A -   "
26.22, 1012.88, 0.0438727, NaN, NaN, NaN, 0.0396753, "- N/A -   "
26.39, 1020.27, 0.04416146, NaN, NaN, NaN, 0.0372337, "- N/A -   "
26.56, 1027.55, 0.0444391, NaN, NaN, NaN, 0.0396753, "- N/A -   "
26.73, 1035.18, 0.04473625, NaN, NaN, NaN, 0.0335714, "- N/A -   "
26.9, 1042.34, 0.0450139, NaN, NaN, NaN, 0.03601294, "- N/A -   "
27.07, 1049.73, 0.0453027, NaN, NaN, NaN, 0.0335714, "- N/A -   "
27.24, 1056.41, 0.0455665, NaN, NaN, NaN, 0.0433376, "- N/A -   "
27.41, 1064.28, 0.0458608, NaN, NaN, NaN, 0.0372337, "- N/A -   "
27.58, 1071.672, 0.0461468, NaN, NaN, NaN, 0.03601294, "- N/A -   "
27.75, 1079.07, 0.04643562, NaN, NaN, NaN, 0.0335714, "- N/A -   "
27.92, 1085.27, 0.0466828, NaN, NaN, NaN, 0.0494415, "- N/A -   "
28.09, 1093.85, 0.04700763, NaN, NaN, NaN, 0.0323506, "- N/A -   "
28.26, 1101.25, 0.0472964, NaN, NaN, NaN, 0.0299091, "- N/A -   "
28.43, 1107.92, 0.04755743, NaN, NaN, NaN, 0.0384545, "- N/A -   "
28.6, 1114.96, 0.0478268, NaN, NaN, NaN, 0.0445584, "- N/A -   "
28.77, 1123.19, 0.04813777, NaN, NaN, NaN, 0.0323506, "- N/A -   "
28.94, 1130.344, 0.0484182, NaN, NaN, NaN, 0.0335714, "- N/A -   "
29.11, 1137.62, 0.0486959, NaN, NaN, NaN, 0.03601294, "- N/A -   "
29.28, 1144.3, 0.0489569, NaN, NaN, NaN, 0.04577916, "- N/A -   "
29.45, 1152.88, 0.04928179, NaN, NaN, NaN, 0.0274675, "- N/A -   "
29.62, 1159.68, 0.04954836, NaN, NaN, NaN, 0.0347922, "- N/A -   "
29.79, 1167.19, 0.0498316, NaN, NaN, NaN, 0.0347922, "- N/A -   "
29.96, 1173.99, 0.0501009, NaN, NaN, NaN, 0.04089605, "- N/A -   "
30.13, 1181.62, 0.0503925, NaN, NaN, NaN, 0.0372337, "- N/A -   "
30.3, 1189.37, 0.05068683, NaN, NaN, NaN, 0.0335714, "- N/A -   "
30.47, 1196.53, 0.0509701, NaN, NaN, NaN, 0.0323506, "- N/A -   "
30.64, 1203.21, 0.05123107, NaN, NaN, NaN, 0.04211683, "- N/A -   "
30.81, 1211.32, 0.0515337, NaN, NaN, NaN, 0.03601294, "- N/A -   "
30.98, 1218.829, 0.0518281, NaN, NaN, NaN, 0.0299091, "- N/A -   "
31.15, 1226.1, 0.0521113, NaN, NaN, NaN, 0.0299091, "- N/A -   "
31.32, 1231.95, 0.05234733, NaN, NaN, NaN, 0.05066227, "- N/A -   "
31.49, 1240.175, 0.0526611, NaN, NaN, NaN, 0.0384545, "- N/A -   "
31.66, 1248.05, 0.0529665, NaN, NaN, NaN, 0.0274675, "- N/A -   "
31.83, 1254.843, 0.05323589, NaN, NaN, NaN, 0.0347922, "- N/A -   "
32, 1261.521, 0.05349968, NaN, NaN, NaN, 0.04211683, "- N/A -   "
32.17, 1269.39, 0.0538023, NaN, NaN, NaN, 0.0335714, "- N/A -   "
32.238, 1272.61, 0.0539273, NaN, NaN, NaN, 0.0286883, "- N/A -   "