File: 2_Tensile_Data/Hamel_ForceTest_Bolt9_Test8.csv
Time, Load (lb), Position (in), AxialStrain (in), TransverseStrain (in), Auxiliary (), Control Out (V), Stress (psi)
0.0, 13.09217, 0.0, NaN, NaN, NaN, -0.007935055, "- N/A -   "
0.01, 12.9742, 2.776752E-6, NaN, NaN, NaN, -6.103888E-4, "- N/A -   "
0.02, 13.09217, 2.776752E-6, NaN, NaN, NaN, 0.01037661, "- N/A -   "
0.03, 13.09217, 2.776752E-6, NaN, NaN, NaN, 0.0299091, "- N/A -   "
0.04, 13.2101, 8.330256E-6, NaN, NaN, NaN, 0.04699994, "- N/A -   "
0.05, 13.3281, 2.2214e-05, NaN, NaN, NaN, 0.0604285, "- N/A -   "
0.06, 13.6819, 4.16513e-05, NaN, NaN, NaN, 0.07263627, "- N/A -   "
0.07, 13.9178, 6.386529E-5, NaN, NaN, NaN, 0.08240249, "- N/A -   "
0.08, 14.2716, 8.885606E-5, NaN, NaN, NaN, 0.0897272, "- N/A -   "
0.09, 14.6255, 0.0001194, NaN, NaN, NaN, 0.095831, "- N/A -   "
0.1, 14.9793, 0.000152721, NaN, NaN, NaN, 0.09338949, "- N/A -   "
0.11, 15.4511, 0.000183266, NaN, NaN, NaN, 0.0872856, "- N/A -   "
0.12, 15.805, 0.000211033, NaN, NaN, NaN, 0.08240249, "- N/A -   "
0.13, 16.1588, 2.360239E-4, NaN, NaN, NaN, 0.07874016, "- N/A -   "
0.14, 16.3947, 0.000261015, NaN, NaN, NaN, 0.0750778, "- N/A -   "
0.15, 16.86649, 2.832287E-4, NaN, NaN, NaN, 0.07141549, "- N/A -   "
0.16, 17.2203, 3.054427E-4, NaN, NaN, NaN, 0.0689739, "- N/A -   "
0.17, 17.4562, 0.000327657, NaN, NaN, NaN, 0.06775316, "- N/A -   "
0.18, 17.5742, 0.000344317, NaN, NaN, NaN, 0.06653238, "- N/A -   "
0.19, 17.928, 3.637545E-4, NaN, NaN, NaN, 0.06653238, "- N/A -   "
0.2, 18.046, 0.000383192, NaN, NaN, NaN, 0.0640908, "- N/A -   "
0.21, 18.2819, 0.000399852, NaN, NaN, NaN, 0.0640908, "- N/A -   "
0.22, 18.5178, 4.192895E-4, NaN, NaN, NaN, 0.06287005, "- N/A -   "
0.23, 18.6357, 0.00043595, NaN, NaN, NaN, 0.06287005, "- N/A -   "
0.24, 18.9895, 4.553873E-4, NaN, NaN, NaN, 0.06164927, "- N/A -   "
0.25, 19.2254, 0.000474825, NaN, NaN, NaN, 0.06164927, "- N/A -   "
0.26, 19.3434, 0.000491485, NaN, NaN, NaN, 0.0604285, "- N/A -   "
0.27, 19.57928, 5.081456E-4, NaN, NaN, NaN, 0.0604285, "- N/A -   "
0.28, 19.8152, 0.000527583, NaN, NaN, NaN, 0.0592077, "- N/A -   "
0.29, 20.05107, 5.470201E-4, NaN, NaN, NaN, 0.0579869, "- N/A -   "
0.3, 20.287, 0.000569234, NaN, NaN, NaN, 0.05676616, "- N/A -   "
0.31, 20.52286, 0.000588671, NaN, NaN, NaN, 0.0543246, "- N/A -   "
0.32, 20.7588, 6.108854E-4, NaN, NaN, NaN, 0.0531038, "- N/A -   "
0.33, 21.1126, 0.000630323, NaN, NaN, NaN, 0.05066227, "- N/A -   "
0.34, 21.3485, 6.497599E-4, NaN, NaN, NaN, 0.0494415, "- N/A -   "
0.35, 21.5844, 6.719739E-4, NaN, NaN, NaN, 0.04699994, "- N/A -   "
0.36, 21.8203, 6.914112E-4, NaN, NaN, NaN, 0.04577916, "- N/A -   "
0.37, 22.0562, 7.108485E-4, NaN, NaN, NaN, 0.04577916, "- N/A -   "
0.38, 22.29207, 7.302857E-4, NaN, NaN, NaN, 0.0445584, "- N/A -   "
0.39, 22.528, 7.49723E-4, NaN, NaN, NaN, 0.0433376, "- N/A -   "
0.4, 22.7639, 7.691603E-4, NaN, NaN, NaN, 0.04211683, "- N/A -   "
0.45, 23.82539, 8.552396E-4, NaN, NaN, NaN, 0.0396753, "- N/A -   "
0.5, 24.8869, 0.000941319, NaN, NaN, NaN, 0.0384545, "- N/A -   "
0.55, 25.9484, 0.00103851, NaN, NaN, NaN, 0.0323506, "- N/A -   "
0.6, 27.1279, 0.00112458, NaN, NaN, NaN, 0.03112983, "- N/A -   "
0.65, 28.0715, 0.00120789, NaN, NaN, NaN, 0.03112983, "- N/A -   "
0.7, 28.89713, 0.00128841, NaN, NaN, NaN, 0.0323506, "- N/A -   "
0.75, 29.84071, 0.00136339, NaN, NaN, NaN, 0.03601294, "- N/A -   "
0.8, 30.6663, 0.0014328, NaN, NaN, NaN, 0.04211683, "- N/A -   "
0.85, 31.492, 0.001510553, NaN, NaN, NaN, 0.04577916, "- N/A -   "
0.9, 32.67145, 0.001599409, NaN, NaN, NaN, 0.04211683, "- N/A -   "
0.95, 33.61503, 0.00168271, NaN, NaN, NaN, 0.04211683, "- N/A -   "
1, 34.6766, 0.00177157, NaN, NaN, NaN, 0.0396753, "- N/A -   "
1.05, 35.6201, 0.00186042, NaN, NaN, NaN, 0.0384545, "- N/A -   "
1.1, 36.79961, 0.00195483, NaN, NaN, NaN, 0.0323506, "- N/A -   "
1.15, 37.9791, 0.002046466, NaN, NaN, NaN, 0.0286883, "- N/A -   "
1.2, 38.8047, 0.00212977, NaN, NaN, NaN, 0.0286883, "- N/A -   "
1.25, 39.7483, 0.00221029, NaN, NaN, NaN, 0.03112983, "- N/A -   "
1.3, 40.69188, 0.00228804, NaN, NaN, NaN, 0.0323506, "- N/A -   "
1.35, 41.6355, 0.00236857, NaN, NaN, NaN, 0.0335714, "- N/A -   "
1.4, 42.579, 0.00244632, NaN, NaN, NaN, 0.03601294, "- N/A -   "
1.45, 43.5226, 0.0025324, NaN, NaN, NaN, 0.03601294, "- N/A -   "
1.5, 44.34825, 0.00260182, NaN, NaN, NaN, 0.04089605, "- N/A -   "
1.55, 45.29183, 0.00267957, NaN, NaN, NaN, 0.0445584, "- N/A -   "
1.6, 46.23541, 0.00276009, NaN, NaN, NaN, 0.0445584, "- N/A -   "
1.65, 47.4149, 0.00284617, NaN, NaN, NaN, 0.0445584, "- N/A -   "
1.7, 48.59436, 0.002943357, NaN, NaN, NaN, 0.0384545, "- N/A -   "
1.75, 49.7738, 0.00303499, NaN, NaN, NaN, 0.0347922, "- N/A -   "
1.8, 50.9533, 0.003121069, NaN, NaN, NaN, 0.0323506, "- N/A -   "
1.85, 51.7789, 0.003201595, NaN, NaN, NaN, 0.0347922, "- N/A -   "
1.9, 52.84047, 0.00327657, NaN, NaN, NaN, 0.0384545, "- N/A -   "
1.95, 53.902, 0.003357093, NaN, NaN, NaN, 0.0384545, "- N/A -   "
2, 55.0815, 0.00344873, NaN, NaN, NaN, 0.0347922, "- N/A -   "
2.05, 56.2609, 0.00353758, NaN, NaN, NaN, 0.0335714, "- N/A -   "
2.1, 57.32247, 0.00361811, NaN, NaN, NaN, 0.0335714, "- N/A -   "
2.15, 58.384, 0.00369586, NaN, NaN, NaN, 0.0372337, "- N/A -   "
2.2, 59.3276, 0.00376528, NaN, NaN, NaN, 0.04211683, "- N/A -   "
2.25, 60.5071, 0.00385135, NaN, NaN, NaN, 0.04089605, "- N/A -   "
2.3, 61.56858, 0.003937434, NaN, NaN, NaN, 0.0396753, "- N/A -   "
2.35, 62.98395, 0.00402907, NaN, NaN, NaN, 0.03601294, "- N/A -   "
2.4, 64.04548, 0.004115146, NaN, NaN, NaN, 0.0347922, "- N/A -   "
2.45, 65.107, 0.00419845, NaN, NaN, NaN, 0.0347922, "- N/A -   "
2.5, 66.2865, 0.00428175, NaN, NaN, NaN, 0.0347922, "- N/A -   "
2.55, 67.5839, 0.004373384, NaN, NaN, NaN, 0.03112983, "- N/A -   "
2.6, 68.6454, 0.00445946, NaN, NaN, NaN, 0.03112983, "- N/A -   "
2.65, 69.707, 0.00453721, NaN, NaN, NaN, 0.0335714, "- N/A -   "
2.7, 70.7685, 0.00461774, NaN, NaN, NaN, 0.0335714, "- N/A -   "
2.75, 71.83001, 0.00470382, NaN, NaN, NaN, 0.0335714, "- N/A -   "
2.8, 73.00948, 0.00478712, NaN, NaN, NaN, 0.0335714, "- N/A -   "
2.85, 74.071, 0.004862093, NaN, NaN, NaN, 0.03601294, "- N/A -   "
2.9, 75.0146, 0.004937065, NaN, NaN, NaN, 0.0396753, "- N/A -   "
2.95, 76.19407, 0.005017591, NaN, NaN, NaN, 0.04089605, "- N/A -   "
3, 77.37354, 0.005098117, NaN, NaN, NaN, 0.0433376, "- N/A -   "
3.05, 78.4351, 0.00517864, NaN, NaN, NaN, 0.0433376, "- N/A -   "
3.1, 79.61454, 0.0052675, NaN, NaN, NaN, 0.04089605, "- N/A -   "
3.15, 81.14786, 0.00536191, NaN, NaN, NaN, 0.03601294, "- N/A -   "
3.2, 82.20939, 0.00544799, NaN, NaN, NaN, 0.0347922, "- N/A -   "
3.25, 83.27091, 0.00552851, NaN, NaN, NaN, 0.0372337, "- N/A -   "
3.3, 84.45039, 0.005609039, NaN, NaN, NaN, 0.0372337, "- N/A -   "
3.35, 85.74781, 0.0056979, NaN, NaN, NaN, 0.0347922, "- N/A -   "
3.4, 87.04523, 0.00579508, NaN, NaN, NaN, 0.0299091, "- N/A -   "
3.45, 88.10676, 0.00587561, NaN, NaN, NaN, 0.0299091, "- N/A -   "
3.5, 89.28623, 0.00595336, NaN, NaN, NaN, 0.0323506, "- N/A -   "
3.55, 90.11186, 0.006022774, NaN, NaN, NaN, 0.0384545, "- N/A -   "
3.6, 91.05545, 0.00609219, NaN, NaN, NaN, 0.0445584, "- N/A -   "
3.65, 92.35287, 0.00617272, NaN, NaN, NaN, 0.04699994, "- N/A -   "
3.7, 93.65029, 0.00626435, NaN, NaN, NaN, 0.0433376, "- N/A -   "
3.75, 94.9477, 0.00635598, NaN, NaN, NaN, 0.0396753, "- N/A -   "
3.8, 96.24514, 0.00644484, NaN, NaN, NaN, 0.0372337, "- N/A -   "
3.85, 97.6605, 0.006536474, NaN, NaN, NaN, 0.0335714, "- N/A -   "
3.9, 98.83998, 0.006630884, NaN, NaN, NaN, 0.0286883, "- N/A -   "
3.95, 100.255, 0.00672252, NaN, NaN, NaN, 0.0250259, "- N/A -   "
4, 101.435, 0.00680304, NaN, NaN, NaN, 0.0262467, "- N/A -   "
4.05, 102.496, 0.006878014, NaN, NaN, NaN, 0.0299091, "- N/A -   "
4.1, 103.44, 0.00695299, NaN, NaN, NaN, 0.0335714, "- N/A -   "
4.15, 104.501, 0.007022406, NaN, NaN, NaN, 0.0396753, "- N/A -   "
4.2, 105.563, 0.00709738, NaN, NaN, NaN, 0.0433376, "- N/A -   "
4.25, 106.742, 0.00717513, NaN, NaN, NaN, 0.04577916, "- N/A -   "
4.3, 108.04, 0.00725843, NaN, NaN, NaN, 0.04577916, "- N/A -   "
4.35, 109.3373, 0.00734451, NaN, NaN, NaN, 0.0445584, "- N/A -   "
4.4, 110.635, 0.007436141, NaN, NaN, NaN, 0.04211683, "- N/A -   "
4.45, 111.932, 0.00752222, NaN, NaN, NaN, 0.04089605, "- N/A -   "
4.5, 113.348, 0.00761663, NaN, NaN, NaN, 0.03601294, "- N/A -   "
4.55, 114.763, 0.007708263, NaN, NaN, NaN, 0.03112983, "- N/A -   "
4.6, 115.942, 0.00779157, NaN, NaN, NaN, 0.03112983, "- N/A -   "
4.65, 117.24, 0.007872092, NaN, NaN, NaN, 0.0323506, "- N/A -   "
4.7, 118.419, 0.007949841, NaN, NaN, NaN, 0.0347922, "- N/A -   "
4.75, 119.599, 0.008033143, NaN, NaN, NaN, 0.0347922, "- N/A -   "
4.8, 120.778, 0.008113669, NaN, NaN, NaN, 0.0372337, "- N/A -   "
4.85, 122.076, 0.008194195, NaN, NaN, NaN, 0.0372337, "- N/A -   "
4.9, 123.373, 0.008274721, NaN, NaN, NaN, 0.0384545, "- N/A -   "
4.95, 124.435, 0.008349693, NaN, NaN, NaN, 0.04211683, "- N/A -   "
5, 125.732, 0.008424665, NaN, NaN, NaN, 0.04577916, "- N/A -   "
5.05, 127.147, 0.008513521, NaN, NaN, NaN, 0.0445584, "- N/A -   "
5.1, 128.6807, 0.008613484, NaN, NaN, NaN, 0.03601294, "- N/A -   "
5.15, 130.096, 0.008707894, NaN, NaN, NaN, 0.03112983, "- N/A -   "
5.2, 131.511, 0.00879675, NaN, NaN, NaN, 0.0299091, "- N/A -   "
5.25, 132.6909, 0.008874499, NaN, NaN, NaN, 0.03112983, "- N/A -   "
5.3, 133.988, 0.008955025, NaN, NaN, NaN, 0.0335714, "- N/A -   "
5.35, 135.286, 0.009032774, NaN, NaN, NaN, 0.0347922, "- N/A -   "
5.4, 136.583, 0.009118853, NaN, NaN, NaN, 0.0335714, "- N/A -   "
5.45, 137.999, 0.00920493, NaN, NaN, NaN, 0.0323506, "- N/A -   "
5.5, 139.296, 0.009279904, NaN, NaN, NaN, 0.03601294, "- N/A -   "
5.55, 140.357, 0.009354877, NaN, NaN, NaN, 0.0396753, "- N/A -   "
5.6, 141.6549, 0.00942985, NaN, NaN, NaN, 0.0445584, "- N/A -   "
5.65, 143.188, 0.009513152, NaN, NaN, NaN, 0.0433376, "- N/A -   "
5.7, 144.486, 0.009599232, NaN, NaN, NaN, 0.04211683, "- N/A -   "
5.75, 146.137, 0.009688088, NaN, NaN, NaN, 0.04089605, "- N/A -   "
5.8, 147.67, 0.009782497, NaN, NaN, NaN, 0.03601294, "- N/A -   "
5.85, 149.0856, 0.009865799, NaN, NaN, NaN, 0.03601294, "- N/A -   "
5.9, 150.501, 0.009943549, NaN, NaN, NaN, 0.0372337, "- N/A -   "
5.95, 152.034, 0.0100324, NaN, NaN, NaN, 0.03601294, "- N/A -   "
6, 153.568, 0.0101185, NaN, NaN, NaN, 0.0335714, "- N/A -   "
6.05, 154.983, 0.0102046, NaN, NaN, NaN, 0.0323506, "- N/A -   "
6.1, 156.752, 0.0102879, NaN, NaN, NaN, 0.0323506, "- N/A -   "
6.15, 157.932, 0.0103628, NaN, NaN, NaN, 0.03601294, "- N/A -   "
6.2, 159.465, 0.0104489, NaN, NaN, NaN, 0.0347922, "- N/A -   "
6.25, 161.116, 0.010535, NaN, NaN, NaN, 0.0335714, "- N/A -   "
6.3, 162.532, 0.0106127, NaN, NaN, NaN, 0.03601294, "- N/A -   "
6.35, 163.711, 0.0106877, NaN, NaN, NaN, 0.0396753, "- N/A -   "
6.4, 165.126, 0.01076269, NaN, NaN, NaN, 0.0433376, "- N/A -   "
6.45, 166.896, 0.0108432, NaN, NaN, NaN, 0.0445584, "- N/A -   "
6.5, 168.547, 0.0109376, NaN, NaN, NaN, 0.0396753, "- N/A -   "
6.55, 170.316, 0.0110376, NaN, NaN, NaN, 0.0335714, "- N/A -   "
6.6, 171.9674, 0.0111209, NaN, NaN, NaN, 0.0323506, "- N/A -   "
6.65, 173.619, 0.01120697, NaN, NaN, NaN, 0.03112983, "- N/A -   "
6.7, 175.034, 0.0112903, NaN, NaN, NaN, 0.03112983, "- N/A -   "
6.75, 176.6853, 0.0113764, NaN, NaN, NaN, 0.0299091, "- N/A -   "
6.8, 178.455, 0.011468, NaN, NaN, NaN, 0.0262467, "- N/A -   "
6.85, 179.87, 0.011543, NaN, NaN, NaN, 0.0299091, "- N/A -   "
6.9, 181.167, 0.0116207, NaN, NaN, NaN, 0.0323506, "- N/A -   "
6.95, 182.3468, 0.0116901, NaN, NaN, NaN, 0.0396753, "- N/A -   "
7, 183.8801, 0.0117651, NaN, NaN, NaN, 0.0433376, "- N/A -   "
7.05, 185.295, 0.01184007, NaN, NaN, NaN, 0.04577916, "- N/A -   "
7.1, 186.829, 0.0119234, NaN, NaN, NaN, 0.04577916, "- N/A -   "
7.15, 188.716, 0.0120178, NaN, NaN, NaN, 0.04089605, "- N/A -   "
7.2, 190.367, 0.0121094, NaN, NaN, NaN, 0.0372337, "- N/A -   "
7.25, 191.901, 0.0121927, NaN, NaN, NaN, 0.0372337, "- N/A -   "
7.3, 193.5518, 0.0122788, NaN, NaN, NaN, 0.03601294, "- N/A -   "
7.35, 195.321, 0.012376, NaN, NaN, NaN, 0.0299091, "- N/A -   "
7.4, 196.854, 0.0124593, NaN, NaN, NaN, 0.0299091, "- N/A -   "
7.45, 198.506, 0.0125454, NaN, NaN, NaN, 0.0299091, "- N/A -   "
7.5, 200.157, 0.0126287, NaN, NaN, NaN, 0.0299091, "- N/A -   "
7.53, 200.865, 0.0126703, NaN, NaN, NaN, 0.0323506, "- N/A -   "
7.54, 201.1, 0.012687, NaN, NaN, NaN, 0.0335714, "- N/A -   "
7.55, 201.336, 0.0127009, NaN, NaN, NaN, 0.0335714, "- N/A -   "
7.76, 207.4696, 0.0130313, NaN, NaN, NaN, 0.0433376, "- N/A -   "
7.97, 214.9, 0.0134173, NaN, NaN, NaN, 0.0262467, "- N/A -   "
8.18, 221.034, 0.0137533, NaN, NaN, NaN, 0.0347922, "- N/A -   "
8.39, 226.577, 0.0140781, NaN, NaN, NaN, 0.04577916, "- N/A -   "
8.6, 233.418, 0.014453, NaN, NaN, NaN, 0.0335714, "- N/A -   "
8.81, 239.669, 0.0148001, NaN, NaN, NaN, 0.0347922, "- N/A -   "
9.02, 245.446, 0.0151333, NaN, NaN, NaN, 0.04211683, "- N/A -   "
9.23, 252.044, 0.0154971, NaN, NaN, NaN, 0.0372337, "- N/A -   "
9.44, 258.524, 0.0158553, NaN, NaN, NaN, 0.0323506, "- N/A -   "
9.65, 264.769, 0.0162023, NaN, NaN, NaN, 0.0335714, "- N/A -   "
9.86, 270.778, 0.0165272, NaN, NaN, NaN, 0.0445584, "- N/A -   "
10.07, 277.73, 0.01690209, NaN, NaN, NaN, 0.0335714, "- N/A -   "
10.28, 284.21, 0.0172575, NaN, NaN, NaN, 0.03112983, "- N/A -   "
10.49, 290.22, 0.01757684, NaN, NaN, NaN, 0.0445584, "- N/A -   "
10.7, 297.525, 0.0179545, NaN, NaN, NaN, 0.0323506, "- N/A -   "
10.91, 304.477, 0.0183127, NaN, NaN, NaN, 0.0286883, "- N/A -   "
11.12, 310.486, 0.018632, NaN, NaN, NaN, 0.04211683, "- N/A -   "
11.33, 317.791, 0.0189958, NaN, NaN, NaN, 0.03601294, "- N/A -   "
11.54, 324.7426, 0.01934563, NaN, NaN, NaN, 0.0372337, "- N/A -   "
11.75, 331.694, 0.01968995, NaN, NaN, NaN, 0.0396753, "- N/A -   "
11.96, 339, 0.0200454, NaN, NaN, NaN, 0.03601294, "- N/A -   "
12.17, 346.187, 0.02039802, NaN, NaN, NaN, 0.0347922, "- N/A -   "
12.38, 353.257, 0.0207423, NaN, NaN, NaN, 0.0372337, "- N/A -   "
12.59, 360.562, 0.0210922, NaN, NaN, NaN, 0.0384545, "- N/A -   "
12.8, 368.103, 0.0214532, NaN, NaN, NaN, 0.0335714, "- N/A -   "
13.01, 375.172, 0.0217947, NaN, NaN, NaN, 0.0372337, "- N/A -   "
13.22, 382.36, 0.0221307, NaN, NaN, NaN, 0.0433376, "- N/A -   "
13.43, 390.372, 0.0225028, NaN, NaN, NaN, 0.0335714, "- N/A -   "
13.64, 397.9126, 0.022861, NaN, NaN, NaN, 0.0299091, "- N/A -   "
13.85, 404.5109, 0.02317477, NaN, NaN, NaN, 0.04577916, "- N/A -   "
14.06, 412.7587, 0.0235469, NaN, NaN, NaN, 0.03601294, "- N/A -   "
14.27, 420.535, 0.0239106, NaN, NaN, NaN, 0.0299091, "- N/A -   "
14.48, 427.369, 0.0242272, NaN, NaN, NaN, 0.04577916, "- N/A -   "
14.69, 435.3813, 0.0245937, NaN, NaN, NaN, 0.0372337, "- N/A -   "
14.9, 443.5113, 0.0249602, NaN, NaN, NaN, 0.0299091, "- N/A -   "
15.11, 450.934, 0.0252934, NaN, NaN, NaN, 0.0372337, "- N/A -   "
15.32, 458.593, 0.025635, NaN, NaN, NaN, 0.04089605, "- N/A -   "
15.53, 466.723, 0.0260043, NaN, NaN, NaN, 0.0335714, "- N/A -   "
15.74, 474.6174, 0.0263514, NaN, NaN, NaN, 0.0347922, "- N/A -   "
15.95, 482.394, 0.02669014, NaN, NaN, NaN, 0.0384545, "- N/A -   "
16.16, 490.4061, 0.0270483, NaN, NaN, NaN, 0.03601294, "- N/A -   "
16.37, 498.536, 0.02740099, NaN, NaN, NaN, 0.0335714, "- N/A -   "
16.58, 506.195, 0.0277398, NaN, NaN, NaN, 0.0396753, "- N/A -   "
16.79, 514.6828, 0.0280952, NaN, NaN, NaN, 0.0372337, "- N/A -   "
17, 523.081, 0.0284562, NaN, NaN, NaN, 0.03112983, "- N/A -   "
17.21, 530.6507, 0.02878381, NaN, NaN, NaN, 0.04211683, "- N/A -   "
17.42, 539.4035, 0.029142, NaN, NaN, NaN, 0.0384545, "- N/A -   "
17.63, 548.2746, 0.0295169, NaN, NaN, NaN, 0.0274675, "- N/A -   "
17.84, 555.726, 0.029839, NaN, NaN, NaN, 0.0396753, "- N/A -   "
18.05, 564.0059, 0.0301777, NaN, NaN, NaN, 0.0445584, "- N/A -   "
18.26, 573.1136, 0.0305609, NaN, NaN, NaN, 0.0299091, "- N/A -   "
18.47, 581.1567, 0.0308914, NaN, NaN, NaN, 0.0384545, "- N/A -   "
18.68, 589.2, 0.0312246, NaN, NaN, NaN, 0.04577916, "- N/A -   "
18.89, 598.544, 0.0316078, NaN, NaN, NaN, 0.0323506, "- N/A -   "
19.1, 607.1784, 0.0319604, NaN, NaN, NaN, 0.0299091, "- N/A -   "
19.31, 615.2215, 0.0322936, NaN, NaN, NaN, 0.0372337, "- N/A -   "
19.52, 623.9743, 0.0326463, NaN, NaN, NaN, 0.03601294, "- N/A -   "
19.73, 632.7271, 0.0330017, NaN, NaN, NaN, 0.0335714, "- N/A -   "
19.94, 641.125, 0.03334046, NaN, NaN, NaN, 0.0384545, "- N/A -   "
20.15, 649.641, 0.03369033, NaN, NaN, NaN, 0.0396753, "- N/A -   "
20.36, 658.7489, 0.0340541, NaN, NaN, NaN, 0.0335714, "- N/A -   "
20.57, 667.383, 0.03440118, NaN, NaN, NaN, 0.0335714, "- N/A -   "
20.78, 675.545, 0.03473439, NaN, NaN, NaN, 0.04089605, "- N/A -   "
20.99, 684.7707, 0.0351037, NaN, NaN, NaN, 0.0323506, "- N/A -   "
21.2, 693.287, 0.035448, NaN, NaN, NaN, 0.03601294, "- N/A -   "
21.41, 701.448, 0.0357784, NaN, NaN, NaN, 0.0433376, "- N/A -   "
21.62, 711.384, 0.0361672, NaN, NaN, NaN, 0.0262467, "- N/A -   "
21.83, 719.6635, 0.0365004, NaN, NaN, NaN, 0.0347922, "- N/A -   "
22.04, 728.1797, 0.0368336, NaN, NaN, NaN, 0.0433376, "- N/A -   "
22.25, 737.6422, 0.0372057, NaN, NaN, NaN, 0.0323506, "- N/A -   "
22.46, 746.395, 0.03754724, NaN, NaN, NaN, 0.03601294, "- N/A -   "
22.67, 754.793, 0.03788045, NaN, NaN, NaN, 0.0433376, "- N/A -   "
22.88, 764.1371, 0.03824698, NaN, NaN, NaN, 0.03601294, "- N/A -   "
23.09, 773.245, 0.0386052, NaN, NaN, NaN, 0.0335714, "- N/A -   "
23.3, 781.9975, 0.0389523, NaN, NaN, NaN, 0.0347922, "- N/A -   "
23.51, 790.277, 0.0392799, NaN, NaN, NaN, 0.0445584, "- N/A -   "
23.72, 799.9762, 0.03965479, NaN, NaN, NaN, 0.0335714, "- N/A -   "
23.93, 809.0838, 0.0400047, NaN, NaN, NaN, 0.0323506, "- N/A -   "
24.14, 817.4818, 0.0403323, NaN, NaN, NaN, 0.04211683, "- N/A -   "
24.35, 826.9442, 0.0407016, NaN, NaN, NaN, 0.0335714, "- N/A -   "
24.56, 835.5787, 0.0410459, NaN, NaN, NaN, 0.0372337, "- N/A -   "
24.77, 844.332, 0.04138193, NaN, NaN, NaN, 0.04211683, "- N/A -   "
24.98, 854.149, 0.0417568, NaN, NaN, NaN, 0.0323506, "- N/A -   "
25.19, 863.0199, 0.0420956, NaN, NaN, NaN, 0.03601294, "- N/A -   "
25.4, 871.5361, 0.0424288, NaN, NaN, NaN, 0.0433376, "- N/A -   "
25.61, 881.4717, 0.0428036, NaN, NaN, NaN, 0.0335714, "- N/A -   "
25.82, 890.698, 0.0431535, NaN, NaN, NaN, 0.0335714, "- N/A -   "
26.03, 899.4504, 0.0434923, NaN, NaN, NaN, 0.0384545, "- N/A -   "
26.24, 908.7946, 0.0438394, NaN, NaN, NaN, 0.0384545, "- N/A -   "
26.45, 918.139, 0.04419756, NaN, NaN, NaN, 0.03601294, "- N/A -   "
26.66, 927.483, 0.04455298, NaN, NaN, NaN, 0.0347922, "- N/A -   "
26.87, 935.8809, 0.0448779, NaN, NaN, NaN, 0.0445584, "- N/A -   "
27.08, 946.053, 0.0452583, NaN, NaN, NaN, 0.03112983, "- N/A -   "
27.29, 955.279, 0.0456081, NaN, NaN, NaN, 0.03112983, "- N/A -   "
27.5, 963.559, 0.0459247, NaN, NaN, NaN, 0.04577916, "- N/A -   "
27.71, 973.6124, 0.0463023, NaN, NaN, NaN, 0.0335714, "- N/A -   "
27.92, 982.957, 0.04665776, NaN, NaN, NaN, 0.03112983, "- N/A -   "
28.13, 991.3546, 0.0469799, NaN, NaN, NaN, 0.0433376, "- N/A -   "
28.34, 1000.82, 0.04734084, NaN, NaN, NaN, 0.0396753, "- N/A -   "
28.55, 1010.63, 0.0477129, NaN, NaN, NaN, 0.0286883, "- N/A -   "
28.76, 1019.56, 0.0480489, NaN, NaN, NaN, 0.0347922, "- N/A -   "
28.97, 1028.5, 0.0483821, NaN, NaN, NaN, 0.0433376, "- N/A -   "
29.18, 1038.16, 0.0487431, NaN, NaN, NaN, 0.0372337, "- N/A -   "
29.39, 1047.7, 0.0490985, NaN, NaN, NaN, 0.0347922, "- N/A -   "
29.6, 1056.65, 0.04943729, NaN, NaN, NaN, 0.0396753, "- N/A -   "
29.81, 1066.54, 0.049801, NaN, NaN, NaN, 0.0335714, "- N/A -   "
30.02, 1076.08, 0.05015647, NaN, NaN, NaN, 0.0323506, "- N/A -   "
30.23, 1085.15, 0.050498, NaN, NaN, NaN, 0.0347922, "- N/A -   "
30.44, 1094.81, 0.05085066, NaN, NaN, NaN, 0.0335714, "- N/A -   "
30.65, 1104.11, 0.0512005, NaN, NaN, NaN, 0.0335714, "- N/A -   "
30.86, 1113.05, 0.0515365, NaN, NaN, NaN, 0.04211683, "- N/A -   "
31.07, 1122.831, 0.0518947, NaN, NaN, NaN, 0.0372337, "- N/A -   "
31.28, 1132.97, 0.0522668, NaN, NaN, NaN, 0.0274675, "- N/A -   "
31.49, 1141.43, 0.0525833, NaN, NaN, NaN, 0.04211683, "- N/A -   "
31.7, 1150.74, 0.05292767, NaN, NaN, NaN, 0.0445584, "- N/A -   "
31.91, 1161.111, 0.0533109, NaN, NaN, NaN, 0.03112983, "- N/A -   "
32.12, 1170.05, 0.0536385, NaN, NaN, NaN, 0.04089605, "- N/A -   "
32.33, 1179.36, 0.0539801, NaN, NaN, NaN, 0.0445584, "- N/A -   "
32.54, 1189.61, 0.0543577, NaN, NaN, NaN, 0.03112983, "- N/A -   "
32.75, 1199.27, 0.0547076, NaN, NaN, NaN, 0.03112983, "- N/A -   "
32.96, 1207.977, 0.055038, NaN, NaN, NaN, 0.0396753, "- N/A -   "
33.17, 1217.76, 0.05539342, NaN, NaN, NaN, 0.0372337, "- N/A -   "
33.38, 1227.415, 0.0557488, NaN, NaN, NaN, 0.03601294, "- N/A -   "
33.59, 1236.6, 0.05609039, NaN, NaN, NaN, 0.0384545, "- N/A -   "
33.8, 1246.26, 0.05643748, NaN, NaN, NaN, 0.0396753, "- N/A -   "
34.01, 1256.15, 0.0568068, NaN, NaN, NaN, 0.03112983, "- N/A -   "
34.22, 1265.34, 0.0571483, NaN, NaN, NaN, 0.03601294, "- N/A -   "
34.43, 1274.4, 0.0574788, NaN, NaN, NaN, 0.0433376, "- N/A -   "
34.64, 1284.78, 0.0578592, NaN, NaN, NaN, 0.03112983, "- N/A -   "
34.85, 1293.84, 0.05819794, NaN, NaN, NaN, 0.0347922, "- N/A -   "
35.06, 1302.42, 0.05852282, NaN, NaN, NaN, 0.04577916, "- N/A -   "
35.27, 1313.28, 0.0589143, NaN, NaN, NaN, 0.0274675, "- N/A -   "
35.48, 1322.46, 0.0592531, NaN, NaN, NaN, 0.0335714, "- N/A -   "
35.69, 1331.04, 0.05957521, NaN, NaN, NaN, 0.04577916, "- N/A -   "
35.9, 1341.54, 0.0599528, NaN, NaN, NaN, 0.0335714, "- N/A -   "
36.11, 1350.72, 0.0602972, NaN, NaN, NaN, 0.03601294, "- N/A -   "
36.32, 1359.78, 0.0606304, NaN, NaN, NaN, 0.0433376, "- N/A -   "
36.53, 1369.68, 0.0609886, NaN, NaN, NaN, 0.0396753, "- N/A -   "
36.74, 1379.46, 0.06135233, NaN, NaN, NaN, 0.0347922, "- N/A -   "
36.95, 1389.12, 0.06170498, NaN, NaN, NaN, 0.0323506, "- N/A -   "
37.16, 1397.826, 0.06202708, NaN, NaN, NaN, 0.0445584, "- N/A -   "
37.37, 1408.08, 0.0624019, NaN, NaN, NaN, 0.0335714, "- N/A -   "
37.58, 1417.622, 0.0627546, NaN, NaN, NaN, 0.0323506, "- N/A -   "
37.79, 1426.45, 0.0630767, NaN, NaN, NaN, 0.04577916, "- N/A -   "
38, 1436.7, 0.06345433, NaN, NaN, NaN, 0.0323506, "- N/A -   "
38.21, 1446.36, 0.06380975, NaN, NaN, NaN, 0.0299091, "- N/A -   "
38.394, 1453.76, 0.06408188, NaN, NaN, NaN, 0.04577916, "- N/A -   "