File: 2_Tensile_Data/Hamel_ForceTest_Bolt5_Test6.csv
Time, Load (lb), Position (in), AxialStrain (in), TransverseStrain (in), Auxiliary (), Control Out (V), Stress (psi)
0.0, 8.138375, 0.0, NaN, NaN, NaN, -0.007935055, "- N/A -   "
0.01, 8.020428, -2.776752E-6, NaN, NaN, NaN, 6.103888E-4, "- N/A -   "
0.02, 8.138375, 0.0, NaN, NaN, NaN, 0.006714277, "- N/A -   "
0.03, 8.138375, 0.0, NaN, NaN, NaN, 0.0177013, "- N/A -   "
0.04, 8.138375, 2.776752E-6, NaN, NaN, NaN, 0.03601294, "- N/A -   "
0.05, 8.138375, 8.330256E-6, NaN, NaN, NaN, 0.05188305, "- N/A -   "
0.06, 8.37427, 2.2214e-05, NaN, NaN, NaN, 0.06653238, "- N/A -   "
0.07, 8.728113, 4.16513e-05, NaN, NaN, NaN, 0.07751938, "- N/A -   "
0.08, 9.081955, 6.386529E-5, NaN, NaN, NaN, 0.08850638, "- N/A -   "
0.09, 9.435798, 8.885606E-5, NaN, NaN, NaN, 0.09705182, "- N/A -   "
0.1, 9.78964, 0.000113847, NaN, NaN, NaN, 0.104376, "- N/A -   "
0.11, 10.3794, 0.000141614, NaN, NaN, NaN, 0.105597, "- N/A -   "
0.12, 10.8512, 0.000172159, NaN, NaN, NaN, 0.100714, "- N/A -   "
0.13, 11.323, 0.000202703, NaN, NaN, NaN, 0.09461027, "- N/A -   "
0.14, 11.7947, 2.304704E-4, NaN, NaN, NaN, 0.0897272, "- N/A -   "
0.15, 12.14859, 2.582379E-4, NaN, NaN, NaN, 0.08362327, "- N/A -   "
0.16, 12.6204, 2.832287E-4, NaN, NaN, NaN, 0.08118171, "- N/A -   "
0.17, 13.09217, 0.000308219, NaN, NaN, NaN, 0.07751938, "- N/A -   "
0.18, 13.446, 0.000330433, NaN, NaN, NaN, 0.0750778, "- N/A -   "
0.19, 13.6819, 0.000349871, NaN, NaN, NaN, 0.07263627, "- N/A -   "
0.2, 14.1537, 0.000372085, NaN, NaN, NaN, 0.0701947, "- N/A -   "
0.21, 14.3896, 0.000394299, NaN, NaN, NaN, 0.06775316, "- N/A -   "
0.22, 14.8614, 4.13736E-4, NaN, NaN, NaN, 0.06653238, "- N/A -   "
0.23, 15.0973, 0.00043595, NaN, NaN, NaN, 0.0640908, "- N/A -   "
0.24, 15.4511, 0.000458164, NaN, NaN, NaN, 0.06287005, "- N/A -   "
0.25, 15.805, 4.776013E-4, NaN, NaN, NaN, 0.0604285, "- N/A -   "
0.26, 16.1588, 0.000499815, NaN, NaN, NaN, 0.0579869, "- N/A -   "
0.27, 16.5126, 5.192526E-4, NaN, NaN, NaN, 0.05676616, "- N/A -   "
0.28, 16.86649, 5.442434E-4, NaN, NaN, NaN, 0.0531038, "- N/A -   "
0.29, 17.3383, 5.664574E-4, NaN, NaN, NaN, 0.05066227, "- N/A -   "
0.3, 17.6921, 0.000591448, NaN, NaN, NaN, 0.0482207, "- N/A -   "
0.31, 18.046, 6.108854E-4, NaN, NaN, NaN, 0.04577916, "- N/A -   "
0.32, 18.3998, 6.330994E-4, NaN, NaN, NaN, 0.0433376, "- N/A -   "
0.33, 18.6357, 0.000655313, NaN, NaN, NaN, 0.04211683, "- N/A -   "
0.34, 18.9895, 6.719739E-4, NaN, NaN, NaN, 0.04089605, "- N/A -   "
0.35, 19.3434, 6.914112E-4, NaN, NaN, NaN, 0.04089605, "- N/A -   "
0.36, 19.57928, 0.000705295, NaN, NaN, NaN, 0.04089605, "- N/A -   "
0.37, 19.8152, 0.000724732, NaN, NaN, NaN, 0.04089605, "- N/A -   "
0.38, 20.169, 7.413927E-4, NaN, NaN, NaN, 0.0396753, "- N/A -   "
0.39, 20.4049, 7.6083E-4, NaN, NaN, NaN, 0.0396753, "- N/A -   "
0.4, 20.7588, 7.774905E-4, NaN, NaN, NaN, 0.0384545, "- N/A -   "
0.41, 21.1126, 7.969278E-4, NaN, NaN, NaN, 0.0384545, "- N/A -   "
0.42, 21.3485, 0.000813588, NaN, NaN, NaN, 0.0372337, "- N/A -   "
0.43, 21.5844, 0.000833026, NaN, NaN, NaN, 0.0372337, "- N/A -   "
0.44, 21.93823, 0.000849686, NaN, NaN, NaN, 0.03601294, "- N/A -   "
0.45, 22.1741, 8.691233E-4, NaN, NaN, NaN, 0.03601294, "- N/A -   "
0.46, 22.528, 8.857838E-4, NaN, NaN, NaN, 0.0347922, "- N/A -   "
0.47, 22.6459, 0.000902444, NaN, NaN, NaN, 0.0347922, "- N/A -   "
0.51, 24.0613, 9.801934E-4, NaN, NaN, NaN, 0.03112983, "- N/A -   "
0.55, 25.2408, 0.00104961, NaN, NaN, NaN, 0.0286883, "- N/A -   "
0.59, 26.3023, 0.0011107, NaN, NaN, NaN, 0.03112983, "- N/A -   "
0.63, 27.2459, 0.00117179, NaN, NaN, NaN, 0.0347922, "- N/A -   "
0.67, 28.0715, 0.00122732, NaN, NaN, NaN, 0.0384545, "- N/A -   "
0.71, 29.0151, 0.00128286, NaN, NaN, NaN, 0.0433376, "- N/A -   "
0.75, 29.9587, 0.00134117, NaN, NaN, NaN, 0.04699994, "- N/A -   "
0.79, 31.1381, 0.00140781, NaN, NaN, NaN, 0.0482207, "- N/A -   "
0.83, 32.5535, 0.001477232, NaN, NaN, NaN, 0.04577916, "- N/A -   "
0.87, 33.8509, 0.001554981, NaN, NaN, NaN, 0.04089605, "- N/A -   "
0.91, 35.0304, 0.00162718, NaN, NaN, NaN, 0.0384545, "- N/A -   "
0.95, 36.2099, 0.00169382, NaN, NaN, NaN, 0.0384545, "- N/A -   "
0.99, 37.5073, 0.00176879, NaN, NaN, NaN, 0.0347922, "- N/A -   "
1.03, 38.8047, 0.00183821, NaN, NaN, NaN, 0.0335714, "- N/A -   "
1.07, 39.98419, 0.001913182, NaN, NaN, NaN, 0.03112983, "- N/A -   "
1.11, 41.2816, 0.001982601, NaN, NaN, NaN, 0.0286883, "- N/A -   "
1.15, 42.4611, 0.00205202, NaN, NaN, NaN, 0.0274675, "- N/A -   "
1.19, 43.6406, 0.00211588, NaN, NaN, NaN, 0.0286883, "- N/A -   "
1.23, 44.70209, 0.00217697, NaN, NaN, NaN, 0.03112983, "- N/A -   "
1.27, 45.6457, 0.002238062, NaN, NaN, NaN, 0.0347922, "- N/A -   "
1.31, 46.7072, 0.002293597, NaN, NaN, NaN, 0.0384545, "- N/A -   "
1.35, 47.7687, 0.00235191, NaN, NaN, NaN, 0.04211683, "- N/A -   "
1.39, 48.83025, 0.002413, NaN, NaN, NaN, 0.0445584, "- N/A -   "
1.43, 49.8918, 0.00247686, NaN, NaN, NaN, 0.04577916, "- N/A -   "
1.47, 51.1892, 0.0025435, NaN, NaN, NaN, 0.04577916, "- N/A -   "
1.51, 52.36868, 0.00261292, NaN, NaN, NaN, 0.0445584, "- N/A -   "
1.55, 53.54815, 0.00268512, NaN, NaN, NaN, 0.04211683, "- N/A -   "
1.59, 54.8456, 0.00275454, NaN, NaN, NaN, 0.04089605, "- N/A -   "
1.63, 56.2609, 0.00283229, NaN, NaN, NaN, 0.03601294, "- N/A -   "
1.67, 57.5584, 0.00290726, NaN, NaN, NaN, 0.0323506, "- N/A -   "
1.71, 58.8558, 0.00297945, NaN, NaN, NaN, 0.0299091, "- N/A -   "
1.75, 59.9173, 0.0030461, NaN, NaN, NaN, 0.0299091, "- N/A -   "
1.79, 60.97884, 0.003112739, NaN, NaN, NaN, 0.0299091, "- N/A -   "
1.83, 62.1583, 0.0031766, NaN, NaN, NaN, 0.03112983, "- N/A -   "
1.87, 63.33779, 0.00323769, NaN, NaN, NaN, 0.0335714, "- N/A -   "
1.91, 64.28137, 0.003301558, NaN, NaN, NaN, 0.03601294, "- N/A -   "
1.95, 65.4608, 0.00336542, NaN, NaN, NaN, 0.03601294, "- N/A -   "
1.99, 66.52237, 0.00343207, NaN, NaN, NaN, 0.0372337, "- N/A -   "
2.03, 67.5839, 0.00349315, NaN, NaN, NaN, 0.0396753, "- N/A -   "
2.07, 68.6454, 0.00355424, NaN, NaN, NaN, 0.04089605, "- N/A -   "
2.11, 69.589, 0.003615331, NaN, NaN, NaN, 0.0433376, "- N/A -   "
2.15, 70.7685, 0.00367642, NaN, NaN, NaN, 0.04577916, "- N/A -   "
2.19, 71.94796, 0.003748615, NaN, NaN, NaN, 0.0445584, "- N/A -   "
2.23, 73.36333, 0.003826364, NaN, NaN, NaN, 0.0384545, "- N/A -   "
2.27, 74.7787, 0.003904113, NaN, NaN, NaN, 0.0335714, "- N/A -   "
2.31, 75.95817, 0.00397631, NaN, NaN, NaN, 0.03112983, "- N/A -   "
2.35, 77.25559, 0.00404573, NaN, NaN, NaN, 0.0299091, "- N/A -   "
2.39, 78.31712, 0.00410959, NaN, NaN, NaN, 0.03112983, "- N/A -   "
2.43, 79.37865, 0.004173458, NaN, NaN, NaN, 0.0323506, "- N/A -   "
2.47, 80.44018, 0.004234547, NaN, NaN, NaN, 0.03601294, "- N/A -   "
2.51, 81.7376, 0.004306742, NaN, NaN, NaN, 0.0335714, "- N/A -   "
2.55, 82.91707, 0.004376161, NaN, NaN, NaN, 0.0323506, "- N/A -   "
2.59, 84.09654, 0.004442803, NaN, NaN, NaN, 0.0323506, "- N/A -   "
2.63, 85.15807, 0.00450389, NaN, NaN, NaN, 0.0347922, "- N/A -   "
2.67, 86.1017, 0.0045622, NaN, NaN, NaN, 0.0372337, "- N/A -   "
2.71, 87.16318, 0.004620515, NaN, NaN, NaN, 0.04089605, "- N/A -   "
2.75, 88.10676, 0.0046816, NaN, NaN, NaN, 0.0433376, "- N/A -   "
2.79, 89.40418, 0.00475102, NaN, NaN, NaN, 0.0433376, "- N/A -   "
2.83, 90.70161, 0.00482044, NaN, NaN, NaN, 0.04089605, "- N/A -   "
2.87, 91.88108, 0.004887083, NaN, NaN, NaN, 0.04089605, "- N/A -   "
2.91, 93.1785, 0.004959279, NaN, NaN, NaN, 0.0384545, "- N/A -   "
2.95, 94.47592, 0.00503147, NaN, NaN, NaN, 0.03601294, "- N/A -   "
2.99, 95.41951, 0.005098116, NaN, NaN, NaN, 0.03601294, "- N/A -   "
3.03, 96.71693, 0.005167535, NaN, NaN, NaN, 0.03601294, "- N/A -   "
3.07, 97.8964, 0.005234177, NaN, NaN, NaN, 0.03601294, "- N/A -   "
3.11, 98.9579, 0.005303596, NaN, NaN, NaN, 0.0347922, "- N/A -   "
3.15, 100.137, 0.00537301, NaN, NaN, NaN, 0.0335714, "- N/A -   "
3.19, 101.317, 0.005439657, NaN, NaN, NaN, 0.0323506, "- N/A -   "
3.23, 102.496, 0.0055063, NaN, NaN, NaN, 0.0323506, "- N/A -   "
3.27, 103.676, 0.00557572, NaN, NaN, NaN, 0.03112983, "- N/A -   "
3.31, 104.737, 0.00563681, NaN, NaN, NaN, 0.0335714, "- N/A -   "
3.35, 105.681, 0.00570345, NaN, NaN, NaN, 0.0335714, "- N/A -   "
3.39, 106.978, 0.00577009, NaN, NaN, NaN, 0.0335714, "- N/A -   "
3.43, 108.04, 0.00583396, NaN, NaN, NaN, 0.0347922, "- N/A -   "
3.47, 108.983, 0.00589227, NaN, NaN, NaN, 0.0384545, "- N/A -   "
3.51, 110.045, 0.00595336, NaN, NaN, NaN, 0.04089605, "- N/A -   "
3.55, 111.224, 0.00601167, NaN, NaN, NaN, 0.0445584, "- N/A -   "
3.59, 112.286, 0.006075533, NaN, NaN, NaN, 0.04577916, "- N/A -   "
3.63, 113.465, 0.006144952, NaN, NaN, NaN, 0.04577916, "- N/A -   "
3.67, 114.763, 0.006222701, NaN, NaN, NaN, 0.04089605, "- N/A -   "
3.71, 116.178, 0.006303227, NaN, NaN, NaN, 0.03601294, "- N/A -   "
3.75, 117.24, 0.00636987, NaN, NaN, NaN, 0.0347922, "- N/A -   "
3.79, 118.537, 0.006439287, NaN, NaN, NaN, 0.0335714, "- N/A -   "
3.83, 119.599, 0.006503153, NaN, NaN, NaN, 0.0347922, "- N/A -   "
3.87, 120.66, 0.00657535, NaN, NaN, NaN, 0.0323506, "- N/A -   "
3.91, 121.958, 0.006647544, NaN, NaN, NaN, 0.0299091, "- N/A -   "
3.95, 123.137, 0.006719739, NaN, NaN, NaN, 0.0274675, "- N/A -   "
3.99, 124.081, 0.00678083, NaN, NaN, NaN, 0.03112983, "- N/A -   "
4.03, 125.26, 0.00684469, NaN, NaN, NaN, 0.0323506, "- N/A -   "
4.07, 126.204, 0.00690301, NaN, NaN, NaN, 0.03601294, "- N/A -   "
4.11, 127.147, 0.00695854, NaN, NaN, NaN, 0.0396753, "- N/A -   "
4.15, 128.091, 0.007016852, NaN, NaN, NaN, 0.0445584, "- N/A -   "
4.19, 129.035, 0.00707794, NaN, NaN, NaN, 0.04699994, "- N/A -   "
4.23, 130.214, 0.00713903, NaN, NaN, NaN, 0.0482207, "- N/A -   "
4.27, 131.511, 0.00721678, NaN, NaN, NaN, 0.0445584, "- N/A -   "
4.31, 132.809, 0.00729175, NaN, NaN, NaN, 0.04089605, "- N/A -   "
4.35, 133.988, 0.00736395, NaN, NaN, NaN, 0.0372337, "- N/A -   "
4.39, 135.286, 0.00743336, NaN, NaN, NaN, 0.03601294, "- N/A -   "
4.43, 136.465, 0.007500007, NaN, NaN, NaN, 0.03601294, "- N/A -   "
4.47, 137.6447, 0.00757498, NaN, NaN, NaN, 0.0323506, "- N/A -   "
4.51, 138.942, 0.007647175, NaN, NaN, NaN, 0.0299091, "- N/A -   "
4.55, 140.24, 0.007716594, NaN, NaN, NaN, 0.0286883, "- N/A -   "
4.59, 141.419, 0.00778601, NaN, NaN, NaN, 0.0274675, "- N/A -   "
4.63, 142.481, 0.007849878, NaN, NaN, NaN, 0.0286883, "- N/A -   "
4.67, 143.424, 0.007908189, NaN, NaN, NaN, 0.0323506, "- N/A -   "
4.71, 144.486, 0.007969278, NaN, NaN, NaN, 0.0347922, "- N/A -   "
4.75, 145.429, 0.00802759, NaN, NaN, NaN, 0.0396753, "- N/A -   "
4.79, 146.3728, 0.008083125, NaN, NaN, NaN, 0.0433376, "- N/A -   "
4.83, 147.67, 0.008149767, NaN, NaN, NaN, 0.0433376, "- N/A -   "
4.87, 148.732, 0.008219185, NaN, NaN, NaN, 0.04211683, "- N/A -   "
4.91, 149.793, 0.008280274, NaN, NaN, NaN, 0.0445584, "- N/A -   "
4.95, 150.973, 0.008346916, NaN, NaN, NaN, 0.0445584, "- N/A -   "
4.99, 152.152, 0.008413558, NaN, NaN, NaN, 0.0445584, "- N/A -   "
5, 152.624, 0.008433, NaN, NaN, NaN, 0.0445584, "- N/A -   "
5.01, 152.86, 0.008452432, NaN, NaN, NaN, 0.04211683, "- N/A -   "
5.02, 153.214, 0.00847187, NaN, NaN, NaN, 0.04211683, "- N/A -   "
5.03, 153.686, 0.00849131, NaN, NaN, NaN, 0.0396753, "- N/A -   "
5.04, 154.0394, 0.008513521, NaN, NaN, NaN, 0.0372337, "- N/A -   "
5.05, 154.393, 0.008535735, NaN, NaN, NaN, 0.0347922, "- N/A -   "
5.06, 154.865, 0.008557949, NaN, NaN, NaN, 0.0323506, "- N/A -   "
5.07, 155.219, 0.008577387, NaN, NaN, NaN, 0.03112983, "- N/A -   "
5.08, 155.573, 0.008599601, NaN, NaN, NaN, 0.0299091, "- N/A -   "
5.09, 155.927, 0.008619037, NaN, NaN, NaN, 0.0274675, "- N/A -   "
5.1, 156.162, 0.008635699, NaN, NaN, NaN, 0.0274675, "- N/A -   "
5.11, 156.5163, 0.008649582, NaN, NaN, NaN, 0.0286883, "- N/A -   "
5.12, 156.752, 0.00866902, NaN, NaN, NaN, 0.0286883, "- N/A -   "
5.13, 157.106, 0.00868568, NaN, NaN, NaN, 0.0274675, "- N/A -   "
5.14, 157.342, 0.008699563, NaN, NaN, NaN, 0.0286883, "- N/A -   "
5.15, 157.578, 0.008716225, NaN, NaN, NaN, 0.0286883, "- N/A -   "
5.16, 157.814, 0.008732884, NaN, NaN, NaN, 0.0286883, "- N/A -   "
5.17, 158.168, 0.008749546, NaN, NaN, NaN, 0.0286883, "- N/A -   "
5.18, 158.521, 0.008766206, NaN, NaN, NaN, 0.0286883, "- N/A -   "
5.19, 158.875, 0.008782866, NaN, NaN, NaN, 0.0286883, "- N/A -   "
5.2, 159.111, 0.008799527, NaN, NaN, NaN, 0.0299091, "- N/A -   "
5.21, 159.347, 0.008813411, NaN, NaN, NaN, 0.0299091, "- N/A -   "
5.22, 159.583, 0.00883007, NaN, NaN, NaN, 0.0299091, "- N/A -   "
5.23, 159.937, 0.008846732, NaN, NaN, NaN, 0.0299091, "- N/A -   "
5.24, 160.173, 0.008863391, NaN, NaN, NaN, 0.03112983, "- N/A -   "
5.25, 160.5265, 0.00887728, NaN, NaN, NaN, 0.03112983, "- N/A -   "
5.26, 160.7624, 0.008893937, NaN, NaN, NaN, 0.0323506, "- N/A -   "
5.27, 161.116, 0.00890782, NaN, NaN, NaN, 0.0323506, "- N/A -   "
5.28, 161.234, 0.00892448, NaN, NaN, NaN, 0.0323506, "- N/A -   "
5.29, 161.588, 0.008941141, NaN, NaN, NaN, 0.0335714, "- N/A -   "
5.3, 161.824, 0.008955025, NaN, NaN, NaN, 0.0335714, "- N/A -   "
5.31, 162.06, 0.008971686, NaN, NaN, NaN, 0.0335714, "- N/A -   "
5.32, 162.296, 0.008988346, NaN, NaN, NaN, 0.0347922, "- N/A -   "
5.33, 162.65, 0.009005006, NaN, NaN, NaN, 0.0347922, "- N/A -   "
5.34, 162.885, 0.009021667, NaN, NaN, NaN, 0.0347922, "- N/A -   "
5.35, 163.2393, 0.009035551, NaN, NaN, NaN, 0.0347922, "- N/A -   "
5.36, 163.475, 0.00905221, NaN, NaN, NaN, 0.0347922, "- N/A -   "
5.37, 163.829, 0.009068872, NaN, NaN, NaN, 0.0347922, "- N/A -   "
5.38, 164.183, 0.009088309, NaN, NaN, NaN, 0.0347922, "- N/A -   "
5.39, 164.301, 0.009102193, NaN, NaN, NaN, 0.0347922, "- N/A -   "
5.4, 164.655, 0.009118853, NaN, NaN, NaN, 0.03601294, "- N/A -   "
5.41, 165.009, 0.009135514, NaN, NaN, NaN, 0.03601294, "- N/A -   "
5.42, 165.2444, 0.009149398, NaN, NaN, NaN, 0.03601294, "- N/A -   "
5.43, 165.598, 0.009166058, NaN, NaN, NaN, 0.03601294, "- N/A -   "
5.44, 165.834, 0.009182719, NaN, NaN, NaN, 0.03601294, "- N/A -   "
5.45, 166.07, 0.009196602, NaN, NaN, NaN, 0.0372337, "- N/A -   "
5.46, 166.306, 0.009213263, NaN, NaN, NaN, 0.0384545, "- N/A -   "
5.47, 166.542, 0.00922437, NaN, NaN, NaN, 0.0396753, "- N/A -   "
5.48, 166.896, 0.00924103, NaN, NaN, NaN, 0.0396753, "- N/A -   "
5.49, 167.132, 0.009257691, NaN, NaN, NaN, 0.04089605, "- N/A -   "
5.5, 167.367, 0.009274351, NaN, NaN, NaN, 0.04089605, "- N/A -   "
5.51, 167.603, 0.009288235, NaN, NaN, NaN, 0.04089605, "- N/A -   "
5.52, 167.839, 0.009302119, NaN, NaN, NaN, 0.04211683, "- N/A -   "
5.53, 168.193, 0.009318779, NaN, NaN, NaN, 0.0433376, "- N/A -   "
5.54, 168.429, 0.009332663, NaN, NaN, NaN, 0.0433376, "- N/A -   "
5.55, 168.783, 0.009349324, NaN, NaN, NaN, 0.0445584, "- N/A -   "
5.56, 169.019, 0.009363207, NaN, NaN, NaN, 0.0445584, "- N/A -   "
5.57, 169.255, 0.009377091, NaN, NaN, NaN, 0.04577916, "- N/A -   "
5.58, 169.491, 0.009393752, NaN, NaN, NaN, 0.04577916, "- N/A -   "
5.59, 169.844, 0.009410412, NaN, NaN, NaN, 0.04699994, "- N/A -   "
5.6, 170.1982, 0.00942707, NaN, NaN, NaN, 0.04577916, "- N/A -   "
5.61, 170.552, 0.009443733, NaN, NaN, NaN, 0.04577916, "- N/A -   "
5.62, 170.906, 0.009463171, NaN, NaN, NaN, 0.0445584, "- N/A -   "
5.63, 171.26, 0.009482608, NaN, NaN, NaN, 0.0433376, "- N/A -   "
5.64, 171.614, 0.009504822, NaN, NaN, NaN, 0.04211683, "- N/A -   "
5.65, 171.9674, 0.009524259, NaN, NaN, NaN, 0.0396753, "- N/A -   "
5.66, 172.4392, 0.009543696, NaN, NaN, NaN, 0.0384545, "- N/A -   "
5.67, 172.6751, 0.009563133, NaN, NaN, NaN, 0.0372337, "- N/A -   "
5.68, 173.029, 0.009582571, NaN, NaN, NaN, 0.03601294, "- N/A -   "
5.69, 173.383, 0.009602008, NaN, NaN, NaN, 0.0347922, "- N/A -   "
5.7, 173.737, 0.009621446, NaN, NaN, NaN, 0.0335714, "- N/A -   "
5.71, 174.09, 0.009640883, NaN, NaN, NaN, 0.0335714, "- N/A -   "
5.72, 174.562, 0.009657542, NaN, NaN, NaN, 0.0323506, "- N/A -   "
5.73, 174.798, 0.00967698, NaN, NaN, NaN, 0.03112983, "- N/A -   "
5.74, 175.034, 0.00969364, NaN, NaN, NaN, 0.03112983, "- N/A -   "
5.75, 175.388, 0.009710302, NaN, NaN, NaN, 0.03112983, "- N/A -   "
5.76, 175.742, 0.009726962, NaN, NaN, NaN, 0.03112983, "- N/A -   "
5.77, 175.978, 0.009740846, NaN, NaN, NaN, 0.0323506, "- N/A -   "
5.78, 176.331, 0.009757506, NaN, NaN, NaN, 0.0323506, "- N/A -   "
5.79, 176.567, 0.009774166, NaN, NaN, NaN, 0.0323506, "- N/A -   "
5.8, 176.803, 0.009790827, NaN, NaN, NaN, 0.0335714, "- N/A -   "
5.81, 177.039, 0.009807488, NaN, NaN, NaN, 0.0335714, "- N/A -   "
5.82, 177.393, 0.009821372, NaN, NaN, NaN, 0.0335714, "- N/A -   "
5.83, 177.747, 0.009835254, NaN, NaN, NaN, 0.0347922, "- N/A -   "
5.84, 177.983, 0.009851916, NaN, NaN, NaN, 0.0347922, "- N/A -   "
5.85, 178.219, 0.009868576, NaN, NaN, NaN, 0.0347922, "- N/A -   "
5.86, 178.572, 0.009885237, NaN, NaN, NaN, 0.0347922, "- N/A -   "
5.87, 178.926, 0.009901897, NaN, NaN, NaN, 0.0347922, "- N/A -   "
5.88, 179.162, 0.009918558, NaN, NaN, NaN, 0.03601294, "- N/A -   "
5.89, 179.3981, 0.009935218, NaN, NaN, NaN, 0.03601294, "- N/A -   "
5.9, 179.752, 0.009949102, NaN, NaN, NaN, 0.03601294, "- N/A -   "
5.91, 180.106, 0.009968539, NaN, NaN, NaN, 0.03601294, "- N/A -   "
5.92, 180.342, 0.0099852, NaN, NaN, NaN, 0.03601294, "- N/A -   "
5.93, 180.696, 0.0100019, NaN, NaN, NaN, 0.0347922, "- N/A -   "
5.94, 180.931, 0.0100185, NaN, NaN, NaN, 0.0347922, "- N/A -   "
5.95, 181.285, 0.0100352, NaN, NaN, NaN, 0.0347922, "- N/A -   "
[...]
27.5, 1025.64, 0.04593303, NaN, NaN, NaN, 0.0433376, "- N/A -   "
27.57, 1029.22, 0.0460635, NaN, NaN, NaN, 0.0384545, "- N/A -   "
27.64, 1032.44, 0.04618849, NaN, NaN, NaN, 0.0335714, "- N/A -   "
27.71, 1035.54, 0.0463051, NaN, NaN, NaN, 0.0335714, "- N/A -   "
27.78, 1038.52, 0.0464245, NaN, NaN, NaN, 0.0335714, "- N/A -   "
27.85, 1042.1, 0.04655225, NaN, NaN, NaN, 0.0274675, "- N/A -   "
27.92, 1044.72, 0.0466578, NaN, NaN, NaN, 0.0323506, "- N/A -   "
27.99, 1047.23, 0.0467577, NaN, NaN, NaN, 0.0396753, "- N/A -   "
28.06, 1049.85, 0.04685769, NaN, NaN, NaN, 0.04699994, "- N/A -   "
28.13, 1052.95, 0.0469743, NaN, NaN, NaN, 0.04699994, "- N/A -   "
28.2, 1056.65, 0.0471131, NaN, NaN, NaN, 0.0384545, "- N/A -   "
28.27, 1059.866, 0.0472381, NaN, NaN, NaN, 0.0335714, "- N/A -   "
28.34, 1063.09, 0.04736028, NaN, NaN, NaN, 0.03112983, "- N/A -   "
28.41, 1066.42, 0.0474852, NaN, NaN, NaN, 0.0274675, "- N/A -   "
28.48, 1069.41, 0.04760463, NaN, NaN, NaN, 0.0262467, "- N/A -   "
28.55, 1072.15, 0.0477074, NaN, NaN, NaN, 0.0323506, "- N/A -   "
28.62, 1074.65, 0.04780456, NaN, NaN, NaN, 0.04089605, "- N/A -   "
28.69, 1077.396, 0.0479129, NaN, NaN, NaN, 0.0445584, "- N/A -   "
28.76, 1080.74, 0.04803503, NaN, NaN, NaN, 0.04211683, "- N/A -   "
28.83, 1083.84, 0.0481517, NaN, NaN, NaN, 0.0433376, "- N/A -   "
28.9, 1087.06, 0.04827661, NaN, NaN, NaN, 0.0384545, "- N/A -   "
28.97, 1090.87, 0.0484154, NaN, NaN, NaN, 0.0299091, "- N/A -   "
29.04, 1093.85, 0.04852929, NaN, NaN, NaN, 0.0299091, "- N/A -   "
29.11, 1096.6, 0.0486376, NaN, NaN, NaN, 0.0335714, "- N/A -   "
29.18, 1099.46, 0.0487487, NaN, NaN, NaN, 0.03601294, "- N/A -   "
29.25, 1102.439, 0.0488597, NaN, NaN, NaN, 0.0384545, "- N/A -   "
29.32, 1105.66, 0.0489819, NaN, NaN, NaN, 0.0372337, "- N/A -   "
29.39, 1108.4, 0.04908742, NaN, NaN, NaN, 0.04089605, "- N/A -   "
29.46, 1111.14, 0.0491957, NaN, NaN, NaN, 0.0445584, "- N/A -   "
29.53, 1114.84, 0.049329, NaN, NaN, NaN, 0.0372337, "- N/A -   "
29.6, 1118.3, 0.0494595, NaN, NaN, NaN, 0.03112983, "- N/A -   "
29.67, 1121.4, 0.04958168, NaN, NaN, NaN, 0.0286883, "- N/A -   "
29.74, 1124.14, 0.04968442, NaN, NaN, NaN, 0.0347922, "- N/A -   "
29.81, 1127.24, 0.0498038, NaN, NaN, NaN, 0.0335714, "- N/A -   "
29.88, 1130.7, 0.0499288, NaN, NaN, NaN, 0.0299091, "- N/A -   "
29.95, 1133.33, 0.0500343, NaN, NaN, NaN, 0.0347922, "- N/A -   "
30.02, 1135.95, 0.0501343, NaN, NaN, NaN, 0.04211683, "- N/A -   "
30.09, 1139.05, 0.0502537, NaN, NaN, NaN, 0.04089605, "- N/A -   "
30.16, 1142.03, 0.05037306, NaN, NaN, NaN, 0.04089605, "- N/A -   "
30.23, 1145.37, 0.0504952, NaN, NaN, NaN, 0.0372337, "- N/A -   "
30.3, 1148.59, 0.0506146, NaN, NaN, NaN, 0.03601294, "- N/A -   "
30.37, 1151.81, 0.0507368, NaN, NaN, NaN, 0.0347922, "- N/A -   "
30.44, 1154.91, 0.0508562, NaN, NaN, NaN, 0.0323506, "- N/A -   "
30.51, 1157.89, 0.0509701, NaN, NaN, NaN, 0.0347922, "- N/A -   "
30.58, 1160.87, 0.0510867, NaN, NaN, NaN, 0.0335714, "- N/A -   "
30.65, 1164.09, 0.0512061, NaN, NaN, NaN, 0.0323506, "- N/A -   "
30.72, 1166.72, 0.0513116, NaN, NaN, NaN, 0.0372337, "- N/A -   "
30.79, 1169.58, 0.05141989, NaN, NaN, NaN, 0.04211683, "- N/A -   "
30.86, 1172.44, 0.051531, NaN, NaN, NaN, 0.0445584, "- N/A -   "
30.93, 1175.78, 0.05165314, NaN, NaN, NaN, 0.04211683, "- N/A -   "
31, 1179.36, 0.0517892, NaN, NaN, NaN, 0.0335714, "- N/A -   "
31.07, 1182.34, 0.0519058, NaN, NaN, NaN, 0.0347922, "- N/A -   "
31.14, 1185.44, 0.052028, NaN, NaN, NaN, 0.0323506, "- N/A -   "
31.21, 1188.9, 0.052153, NaN, NaN, NaN, 0.0274675, "- N/A -   "
31.28, 1192, 0.0522724, NaN, NaN, NaN, 0.0262467, "- N/A -   "
31.35, 1194.263, 0.052364, NaN, NaN, NaN, 0.0372337, "- N/A -   "
31.42, 1196.65, 0.0524612, NaN, NaN, NaN, 0.04577916, "- N/A -   "
31.49, 1199.75, 0.052575, NaN, NaN, NaN, 0.04699994, "- N/A -   "
31.56, 1202.85, 0.05269442, NaN, NaN, NaN, 0.04577916, "- N/A -   "
31.63, 1206.43, 0.0528277, NaN, NaN, NaN, 0.0384545, "- N/A -   "
31.7, 1209.885, 0.052961, NaN, NaN, NaN, 0.03112983, "- N/A -   "
31.77, 1213.1, 0.0530832, NaN, NaN, NaN, 0.0286883, "- N/A -   "
31.84, 1216.21, 0.05319979, NaN, NaN, NaN, 0.0286883, "- N/A -   "
31.91, 1218.95, 0.0533081, NaN, NaN, NaN, 0.0323506, "- N/A -   "
31.98, 1221.69, 0.0534136, NaN, NaN, NaN, 0.0372337, "- N/A -   "
32.05, 1224.2, 0.05351634, NaN, NaN, NaN, 0.0433376, "- N/A -   "
32.12, 1227.06, 0.05362741, NaN, NaN, NaN, 0.04577916, "- N/A -   "
32.19, 1230.28, 0.0537551, NaN, NaN, NaN, 0.04211683, "- N/A -   "
32.26, 1233.5, 0.0538718, NaN, NaN, NaN, 0.04089605, "- N/A -   "
32.33, 1236.84, 0.0539995, NaN, NaN, NaN, 0.03601294, "- N/A -   "
32.4, 1240.41, 0.05413278, NaN, NaN, NaN, 0.0299091, "- N/A -   "
32.47, 1243.39, 0.0542466, NaN, NaN, NaN, 0.0299091, "- N/A -   "
32.54, 1246.26, 0.0543605, NaN, NaN, NaN, 0.03112983, "- N/A -   "
32.61, 1249.24, 0.05447432, NaN, NaN, NaN, 0.0323506, "- N/A -   "
32.68, 1252.1, 0.05458539, NaN, NaN, NaN, 0.0347922, "- N/A -   "
32.75, 1254.843, 0.0546909, NaN, NaN, NaN, 0.0396753, "- N/A -   "
32.82, 1257.59, 0.0547992, NaN, NaN, NaN, 0.0445584, "- N/A -   "
32.89, 1260.567, 0.054913, NaN, NaN, NaN, 0.04577916, "- N/A -   "
32.96, 1264.26, 0.05504633, NaN, NaN, NaN, 0.0372337, "- N/A -   "
33.03, 1267.48, 0.0551685, NaN, NaN, NaN, 0.0347922, "- N/A -   "
33.1, 1270.7, 0.05529346, NaN, NaN, NaN, 0.0323506, "- N/A -   "
33.17, 1273.57, 0.0554045, NaN, NaN, NaN, 0.0347922, "- N/A -   "
33.24, 1276.55, 0.0555212, NaN, NaN, NaN, 0.0335714, "- N/A -   "
33.31, 1279.77, 0.05564333, NaN, NaN, NaN, 0.0323506, "- N/A -   "
33.38, 1282.63, 0.0557516, NaN, NaN, NaN, 0.03601294, "- N/A -   "
33.45, 1285.133, 0.0558516, NaN, NaN, NaN, 0.04211683, "- N/A -   "
33.52, 1288.472, 0.05597654, NaN, NaN, NaN, 0.0384545, "- N/A -   "
33.59, 1291.33, 0.05609039, NaN, NaN, NaN, 0.0396753, "- N/A -   "
33.66, 1294.554, 0.0562126, NaN, NaN, NaN, 0.0372337, "- N/A -   "
33.73, 1297.65, 0.056332, NaN, NaN, NaN, 0.0372337, "- N/A -   "
33.8, 1300.755, 0.0564514, NaN, NaN, NaN, 0.03601294, "- N/A -   "
33.87, 1303.97, 0.05657632, NaN, NaN, NaN, 0.0323506, "- N/A -   "
33.94, 1307.08, 0.0566902, NaN, NaN, NaN, 0.0323506, "- N/A -   "
34.01, 1310.18, 0.0568096, NaN, NaN, NaN, 0.03112983, "- N/A -   "
34.08, 1313.28, 0.056929, NaN, NaN, NaN, 0.03112983, "- N/A -   "
34.15, 1315.66, 0.05702615, NaN, NaN, NaN, 0.0384545, "- N/A -   "
34.22, 1318.52, 0.05713722, NaN, NaN, NaN, 0.04211683, "- N/A -   "
34.29, 1321.39, 0.0572483, NaN, NaN, NaN, 0.0433376, "- N/A -   "
34.36, 1324.49, 0.05736214, NaN, NaN, NaN, 0.0445584, "- N/A -   "
34.43, 1327.94, 0.0574954, NaN, NaN, NaN, 0.0372337, "- N/A -   "
34.5, 1331.4, 0.05762038, NaN, NaN, NaN, 0.0335714, "- N/A -   "
34.57, 1334.74, 0.05774811, NaN, NaN, NaN, 0.0299091, "- N/A -   "
34.64, 1337.84, 0.05786751, NaN, NaN, NaN, 0.0274675, "- N/A -   "
34.71, 1340.7, 0.05797858, NaN, NaN, NaN, 0.0299091, "- N/A -   "
34.78, 1343.45, 0.05808965, NaN, NaN, NaN, 0.0323506, "- N/A -   "
34.85, 1345.713, 0.05818128, NaN, NaN, NaN, 0.0433376, "- N/A -   "
34.92, 1348.575, 0.0582896, NaN, NaN, NaN, 0.04699994, "- N/A -   "
34.99, 1352.03, 0.0584173, NaN, NaN, NaN, 0.04211683, "- N/A -   "
35.06, 1355.49, 0.0585478, NaN, NaN, NaN, 0.03601294, "- N/A -   "
35.13, 1358.71, 0.0586728, NaN, NaN, NaN, 0.0335714, "- N/A -   "
35.2, 1362.05, 0.05879772, NaN, NaN, NaN, 0.0299091, "- N/A -   "
35.27, 1364.91, 0.0589143, NaN, NaN, NaN, 0.0299091, "- N/A -   "
35.34, 1368.13, 0.0590337, NaN, NaN, NaN, 0.0286883, "- N/A -   "
35.41, 1370.76, 0.0591365, NaN, NaN, NaN, 0.0347922, "- N/A -   "
35.48, 1373.26, 0.05923645, NaN, NaN, NaN, 0.04211683, "- N/A -   "
35.55, 1376.12, 0.0593475, NaN, NaN, NaN, 0.0445584, "- N/A -   "
35.62, 1379.22, 0.0594614, NaN, NaN, NaN, 0.04577916, "- N/A -   "
35.69, 1382.44, 0.0595863, NaN, NaN, NaN, 0.0433376, "- N/A -   "
35.76, 1385.66, 0.05971127, NaN, NaN, NaN, 0.0396753, "- N/A -   "
35.83, 1389.24, 0.0598418, NaN, NaN, NaN, 0.0323506, "- N/A -   "
35.9, 1392.46, 0.0599667, NaN, NaN, NaN, 0.0299091, "- N/A -   "
35.97, 1395.2, 0.060075, NaN, NaN, NaN, 0.0323506, "- N/A -   "
36.04, 1398.06, 0.06018332, NaN, NaN, NaN, 0.03601294, "- N/A -   "
36.11, 1400.93, 0.06029439, NaN, NaN, NaN, 0.0384545, "- N/A -   "
36.18, 1403.67, 0.06040268, NaN, NaN, NaN, 0.04211683, "- N/A -   "
36.25, 1406.65, 0.06051653, NaN, NaN, NaN, 0.0433376, "- N/A -   "
36.32, 1409.75, 0.0606359, NaN, NaN, NaN, 0.04211683, "- N/A -   "
36.39, 1413.45, 0.060772, NaN, NaN, NaN, 0.0335714, "- N/A -   "
36.46, 1416.67, 0.06089972, NaN, NaN, NaN, 0.0299091, "- N/A -   "
36.527, 1419.29, 0.0609997, NaN, NaN, NaN, 0.0335714, "- N/A -   "