File: 2_Tensile_Data/Hamel_ForceTest_Bolt3_Test1.csv
Time, Load (lb), Position (in), AxialStrain (in), TransverseStrain (in), Auxiliary (), Control Out (V), Stress (psi)
0.0,1.06153,0.0, NaN, NaN, NaN,0.11048," ""- N/A -   """
0.01,1.17947,2.77675e-05, NaN, NaN, NaN,0.106818," ""- N/A -   """
0.02,1.53332,5.83118e-05, NaN, NaN, NaN,0.100714," ""- N/A -   """
0.03,1.65126,8.607931e-05, NaN, NaN, NaN,0.09705182," ""- N/A -   """
0.16,3.53842,0.0003859685, NaN, NaN, NaN,0.0592077," ""- N/A -   """
0.29,5.071741,0.0006636437, NaN, NaN, NaN,0.0335714," ""- N/A -   """
0.42,6.487111,0.0008746768, NaN, NaN, NaN,0.0347922," ""- N/A -   """
0.55,7.784533,0.00108571, NaN, NaN, NaN,0.0372337," ""- N/A -   """
0.68,9.081955,0.00129119, NaN, NaN, NaN,0.0433376," ""- N/A -   """
0.81,10.4973,0.00151611, NaN, NaN, NaN,0.0384545," ""- N/A -   """
0.94,12.0306,0.0017438, NaN, NaN, NaN,0.0335714," ""- N/A -   """
1.07,13.3281,0.00195761, NaN, NaN, NaN,0.03601294," ""- N/A -   """
1.2,14.6255,0.00217697, NaN, NaN, NaN,0.0347922," ""- N/A -   """
1.33,16.0409,0.00237968, NaN, NaN, NaN,0.0396753," ""- N/A -   """
1.46,17.5742,0.00259904, NaN, NaN, NaN,0.0384545," ""- N/A -   """
1.59,18.9895,0.00282118, NaN, NaN, NaN,0.03601294," ""- N/A -   """
1.72,20.52286,0.00305165, NaN, NaN, NaN,0.03112983," ""- N/A -   """
1.85,21.93823,0.00325991, NaN, NaN, NaN,0.0335714," ""- N/A -   """
1.98,23.2357,0.00347649, NaN, NaN, NaN,0.0347922," ""- N/A -   """
2.11,24.5331,0.00367642, NaN, NaN, NaN,0.04211683," ""- N/A -   """
2.24,25.8305,0.00390134, NaN, NaN, NaN,0.0372337," ""- N/A -   """
2.37,27.2459,0.004123477, NaN, NaN, NaN,0.0347922," ""- N/A -   """
2.5,28.7792,0.00435117, NaN, NaN, NaN,0.0299091," ""- N/A -   """
2.63,29.9587,0.00455665, NaN, NaN, NaN,0.03601294," ""- N/A -   """
2.76,31.2561,0.00475102, NaN, NaN, NaN,0.0445584," ""- N/A -   """
2.89,32.5535,0.004981493, NaN, NaN, NaN,0.0396753," ""- N/A -   """
3.02,33.9689,0.00521196, NaN, NaN, NaN,0.0323506," ""- N/A -   """
3.15,35.3842,0.00544243, NaN, NaN, NaN,0.0274675," ""- N/A -   """
3.28,36.5637,0.00563681, NaN, NaN, NaN,0.03601294," ""- N/A -   """
3.41,37.9791,0.00583951, NaN, NaN, NaN,0.0433376," ""- N/A -   """
3.54,39.3945,0.006056096, NaN, NaN, NaN,0.0433376," ""- N/A -   """
3.67,41.39956,0.006306004, NaN, NaN, NaN,0.0299091," ""- N/A -   """
3.8,43.2867,0.00651426, NaN, NaN, NaN,0.0323506," ""- N/A -   """
3.93,45.29183,0.00671696, NaN, NaN, NaN,0.0396753," ""- N/A -   """
4.06,47.65078,0.00693077, NaN, NaN, NaN,0.0396753," ""- N/A -   """
4.19,50.1277,0.00715014, NaN, NaN, NaN,0.0384545," ""- N/A -   """
4.32,53.19431,0.007388937, NaN, NaN, NaN,0.0299091," ""- N/A -   """
4.45,55.3174,0.00757776, NaN, NaN, NaN,0.04089605," ""- N/A -   """
4.58,58.26605,0.00780545, NaN, NaN, NaN,0.0372337," ""- N/A -   """
4.71,60.8609,0.008010929, NaN, NaN, NaN,0.04211683," ""- N/A -   """
4.84,63.80958,0.008238623, NaN, NaN, NaN,0.0372337," ""- N/A -   """
4.97,66.87622,0.008463539, NaN, NaN, NaN,0.0335714," ""- N/A -   """
5.1,69.8249,0.008674573, NaN, NaN, NaN,0.0347922," ""- N/A -   """
5.23,72.77359,0.008893936, NaN, NaN, NaN,0.0335714," ""- N/A -   """
5.36,75.6043,0.009107746, NaN, NaN, NaN,0.0347922," ""- N/A -   """
5.49,78.31712,0.009313226, NaN, NaN, NaN,0.04089605," ""- N/A -   """
5.62,81.14786,0.00952426, NaN, NaN, NaN,0.04211683," ""- N/A -   """
5.75,83.9786,0.00976306, NaN, NaN, NaN,0.0323506," ""- N/A -   """
5.88,86.69139,0.009987976, NaN, NaN, NaN,0.0299091," ""- N/A -   """
6.01,89.05035,0.0102018, NaN, NaN, NaN,0.0299091," ""- N/A -   """
6.14,91.05545,0.0103878, NaN, NaN, NaN,0.0433376," ""- N/A -   """
6.27,93.76824,0.01061, NaN, NaN, NaN,0.04211683," ""- N/A -   """
6.4,96.95282,0.01084877, NaN, NaN, NaN,0.03112983," ""- N/A -   """
6.53,99.9015,0.0110654, NaN, NaN, NaN,0.03112983," ""- N/A -   """
6.66,103.204,0.0112792, NaN, NaN, NaN,0.0335714," ""- N/A -   """
6.79,106.507,0.0114708, NaN, NaN, NaN,0.0433376," ""- N/A -   """
6.92,110.399,0.0116929, NaN, NaN, NaN,0.04089605," ""- N/A -   """
7.05,114.999,0.0119317, NaN, NaN, NaN,0.0323506," ""- N/A -   """
7.18,118.891,0.0121538, NaN, NaN, NaN,0.0286883," ""- N/A -   """
7.31,122.312,0.0123538, NaN, NaN, NaN,0.03601294," ""- N/A -   """
7.44,126.086,0.01256758, NaN, NaN, NaN,0.0372337," ""- N/A -   """
7.57,129.506,0.0127647, NaN, NaN, NaN,0.04577916," ""- N/A -   """
7.7,134.106,0.01301186, NaN, NaN, NaN,0.0323506," ""- N/A -   """
7.83,137.8806,0.01322567, NaN, NaN, NaN,0.0335714," ""- N/A -   """
7.96,141.773,0.013445, NaN, NaN, NaN,0.0335714," ""- N/A -   """
8.09,145.429,0.0136505, NaN, NaN, NaN,0.0396753," ""- N/A -   """
8.22,149.204,0.0138671, NaN, NaN, NaN,0.0384545," ""- N/A -   """
8.35,153.332,0.014092, NaN, NaN, NaN,0.0347922," ""- N/A -   """
8.48,156.988,0.014303, NaN, NaN, NaN,0.0372337," ""- N/A -   """
8.61,161.234,0.0145307, NaN, NaN, NaN,0.0323506," ""- N/A -   """
8.74,165.009,0.0147473, NaN, NaN, NaN,0.0323506," ""- N/A -   """
8.87,168.547,0.0149473, NaN, NaN, NaN,0.0396753," ""- N/A -   """
9,172.321,0.0151527, NaN, NaN, NaN,0.0445584," ""- N/A -   """
9.13,177.039,0.0153971, NaN, NaN, NaN,0.0323506," ""- N/A -   """
9.26,180.696,0.0156053, NaN, NaN, NaN,0.03601294," ""- N/A -   """
9.39,185.06,0.0158358, NaN, NaN, NaN,0.0299091," ""- N/A -   """
9.52,188.3621,0.0160246, NaN, NaN, NaN,0.04211683," ""- N/A -   """
9.65,192.372,0.0162384, NaN, NaN, NaN,0.0433376," ""- N/A -   """
9.78,196.854,0.0164717, NaN, NaN, NaN,0.03601294," ""- N/A -   """
9.91,201.2184,0.01670494, NaN, NaN, NaN,0.0286883," ""- N/A -   """
10.04,205.2286,0.0169215, NaN, NaN, NaN,0.0286883," ""- N/A -   """
10.17,208.531,0.0171103, NaN, NaN, NaN,0.04089605," ""- N/A -   """
10.3,212.541,0.0173242, NaN, NaN, NaN,0.0433376," ""- N/A -   """
10.43,216.905,0.0175463, NaN, NaN, NaN,0.0396753," ""- N/A -   """
10.56,221.387,0.0177851, NaN, NaN, NaN,0.0299091," ""- N/A -   """
10.69,225.044,0.017985, NaN, NaN, NaN,0.0372337," ""- N/A -   """
10.82,229.054,0.0182016, NaN, NaN, NaN,0.0372337," ""- N/A -   """
10.95,232.71,0.0184043, NaN, NaN, NaN,0.0433376," ""- N/A -   """
11.08,237.428,0.0186487, NaN, NaN, NaN,0.0323506," ""- N/A -   """
11.21,241.321,0.0188653, NaN, NaN, NaN,0.03112983," ""- N/A -   """
11.34,245.21,0.0190763, NaN, NaN, NaN,0.0335714," ""- N/A -   """
11.47,249.098,0.0192929, NaN, NaN, NaN,0.0347922," ""- N/A -   """
11.6,252.633,0.0194928, NaN, NaN, NaN,0.04089605," ""- N/A -   """
11.73,256.8748,0.0197149, NaN, NaN, NaN,0.0384545," ""- N/A -   """
11.86,260.8809,0.0199399, NaN, NaN, NaN,0.0347922," ""- N/A -   """
11.99,264.887,0.0201592, NaN, NaN, NaN,0.0347922," ""- N/A -   """
12.12,268.7752,0.02037025, NaN, NaN, NaN,0.03601294," ""- N/A -   """
12.25,272.663,0.02058406, NaN, NaN, NaN,0.0372337," ""- N/A -   """
12.38,276.552,0.02078954, NaN, NaN, NaN,0.04211683," ""- N/A -   """
12.51,281.147,0.0210311, NaN, NaN, NaN,0.03112983," ""- N/A -   """
12.64,284.8,0.0212422, NaN, NaN, NaN,0.0347922," ""- N/A -   """
12.77,289.277,0.0214754, NaN, NaN, NaN,0.0274675," ""- N/A -   """
12.9,292.6939,0.0216725, NaN, NaN, NaN,0.0372337," ""- N/A -   """
13.03,296.2287,0.02186692, NaN, NaN, NaN,0.04699994," ""- N/A -   """
13.16,300.588,0.02209739, NaN, NaN, NaN,0.0396753," ""- N/A -   """
13.29,305.066,0.0223334, NaN, NaN, NaN,0.03112983," ""- N/A -   """
13.42,309.072,0.02255, NaN, NaN, NaN,0.03112983," ""- N/A -   """
13.55,312.489,0.0227499, NaN, NaN, NaN,0.0384545," ""- N/A -   """
13.68,316.259,0.0229526, NaN, NaN, NaN,0.0445584," ""- N/A -   """
13.81,320.501,0.0231803, NaN, NaN, NaN,0.0396753," ""- N/A -   """
13.94,325.2139,0.02342468, NaN, NaN, NaN,0.0274675," ""- N/A -   """
14.07,328.984,0.0236302, NaN, NaN, NaN,0.0323506," ""- N/A -   """
14.2,332.873,0.0238384, NaN, NaN, NaN,0.0372337," ""- N/A -   """
14.33,336.4074,0.0240356, NaN, NaN, NaN,0.0445584," ""- N/A -   """
14.46,340.885,0.0242633, NaN, NaN, NaN,0.0396753," ""- N/A -   """
14.59,345.362,0.0244993, NaN, NaN, NaN,0.03112983," ""- N/A -   """
14.72,349.25,0.0247075, NaN, NaN, NaN,0.03601294," ""- N/A -   """
14.85,353.4922,0.0249269, NaN, NaN, NaN,0.0347922," ""- N/A -   """
14.98,356.909,0.0251213, NaN, NaN, NaN,0.0433376," ""- N/A -   """
15.11,361.504,0.025349, NaN, NaN, NaN,0.0384545," ""- N/A -   """
15.24,366.1,0.0255794, NaN, NaN, NaN,0.0335714," ""- N/A -   """
15.37,370.223,0.0257988, NaN, NaN, NaN,0.0323506," ""- N/A -   """
15.5,374.347,0.02601261, NaN, NaN, NaN,0.0323506," ""- N/A -   """
15.63,378.236,0.0262209, NaN, NaN, NaN,0.03601294," ""- N/A -   """
15.76,382.006,0.026418, NaN, NaN, NaN,0.0445584," ""- N/A -   """
15.89,386.719,0.0266429, NaN, NaN, NaN,0.04089605," ""- N/A -   """
16.02,391.4322,0.026879, NaN, NaN, NaN,0.0323506," ""- N/A -   """
16.15,396.145,0.02711498, NaN, NaN, NaN,0.0250259," ""- N/A -   """
16.28,399.444,0.0273066, NaN, NaN, NaN,0.03601294," ""- N/A -   """
16.41,403.215,0.0274954, NaN, NaN, NaN,0.04699994," ""- N/A -   """
16.54,408.163,0.0277342, NaN, NaN, NaN,0.0372337," ""- N/A -   """
16.67,412.994,0.0279674, NaN, NaN, NaN,0.0299091," ""- N/A -   """
16.8,417.3539,0.02819236, NaN, NaN, NaN,0.0274675," ""- N/A -   """
16.93,421.124,0.02838951, NaN, NaN, NaN,0.03601294," ""- N/A -   """
17.06,425.0126,0.02858666, NaN, NaN, NaN,0.0433376," ""- N/A -   """
17.19,429.608,0.028806, NaN, NaN, NaN,0.0445584," ""- N/A -   """
17.32,434.792,0.0290504, NaN, NaN, NaN,0.03112983," ""- N/A -   """
17.45,439.0339,0.029267, NaN, NaN, NaN,0.03112983," ""- N/A -   """
17.58,443.276,0.0294724, NaN, NaN, NaN,0.03601294," ""- N/A -   """
17.71,447.517,0.0296807, NaN, NaN, NaN,0.0396753," ""- N/A -   """
17.84,451.877,0.02989451, NaN, NaN, NaN,0.04089605," ""- N/A -   """
17.89,453.762,0.0299806, NaN, NaN, NaN,0.0396753," ""- N/A -   """
17.9,454.116,0.03, NaN, NaN, NaN,0.0384545," ""- N/A -   """
17.91,454.469,0.0300195, NaN, NaN, NaN,0.0384545," ""- N/A -   """
18,457.8861,0.0301777, NaN, NaN, NaN,0.0347922," ""- N/A -   """
18.09,460.478,0.0303138, NaN, NaN, NaN,0.0396753," ""- N/A -   """
18.18,464.131,0.0304804, NaN, NaN, NaN,0.0323506," ""- N/A -   """
18.27,467.194,0.03063035, NaN, NaN, NaN,0.0323506," ""- N/A -   """
18.36,469.6687,0.0307609, NaN, NaN, NaN,0.04089605," ""- N/A -   """
18.45,472.968,0.0309136, NaN, NaN, NaN,0.0396753," ""- N/A -   """
18.54,476.0313,0.0310635, NaN, NaN, NaN,0.0396753," ""- N/A -   """
18.63,479.448,0.031219, NaN, NaN, NaN,0.0372337," ""- N/A -   """
18.72,482.512,0.031369, NaN, NaN, NaN,0.0372337," ""- N/A -   """
18.81,486.047,0.0315328, NaN, NaN, NaN,0.0323506," ""- N/A -   """
18.9,488.9922,0.0316772, NaN, NaN, NaN,0.0335714," ""- N/A -   """
18.99,492.291,0.03183268, NaN, NaN, NaN,0.0323506," ""- N/A -   """
19.08,495.0013,0.0319687, NaN, NaN, NaN,0.0372337," ""- N/A -   """
19.17,497.829,0.03210758, NaN, NaN, NaN,0.0433376," ""- N/A -   """
19.26,501.01,0.0322547, NaN, NaN, NaN,0.0433376," ""- N/A -   """
19.35,504.899,0.03243246, NaN, NaN, NaN,0.0323506," ""- N/A -   """
19.44,507.962,0.0325796, NaN, NaN, NaN,0.0323506," ""- N/A -   """
19.53,511.026,0.0327296, NaN, NaN, NaN,0.0323506," ""- N/A -   """
19.62,514.5645,0.03288507, NaN, NaN, NaN,0.0299091," ""- N/A -   """
19.71,517.1667,0.0330184, NaN, NaN, NaN,0.0372337," ""- N/A -   """
19.8,519.7689,0.0331489, NaN, NaN, NaN,0.04577916," ""- N/A -   """
19.89,523.081,0.0333016, NaN, NaN, NaN,0.04577916," ""- N/A -   """
19.98,526.8657,0.0334682, NaN, NaN, NaN,0.0372337," ""- N/A -   """
20.07,530.1776,0.0336237, NaN, NaN, NaN,0.0347922," ""- N/A -   """
20.16,533.726,0.0337875, NaN, NaN, NaN,0.0286883," ""- N/A -   """
20.25,537.0379,0.03393746, NaN, NaN, NaN,0.0286883," ""- N/A -   """
20.34,539.877,0.0340791, NaN, NaN, NaN,0.0335714," ""- N/A -   """
20.43,542.361,0.03420403, NaN, NaN, NaN,0.0433376," ""- N/A -   """
20.52,545.791,0.03435675, NaN, NaN, NaN,0.04211683," ""- N/A -   """
20.61,549.103,0.0345122, NaN, NaN, NaN,0.0396753," ""- N/A -   """
20.7,553.0058,0.03468163, NaN, NaN, NaN,0.03112983," ""- N/A -   """
20.79,556.436,0.0348399, NaN, NaN, NaN,0.0286883," ""- N/A -   """
20.88,559.5112,0.0349843, NaN, NaN, NaN,0.0299091," ""- N/A -   """
20.97,562.587,0.03512591, NaN, NaN, NaN,0.0347922," ""- N/A -   """
21.06,565.5436,0.0352703, NaN, NaN, NaN,0.03601294," ""- N/A -   """
21.15,568.5006,0.0354064, NaN, NaN, NaN,0.04211683," ""- N/A -   """
21.24,571.694,0.03555353, NaN, NaN, NaN,0.0445584," ""- N/A -   """
21.33,575.5975,0.03572291, NaN, NaN, NaN,0.0347922," ""- N/A -   """
21.42,578.9093,0.03587841, NaN, NaN, NaN,0.0323506," ""- N/A -   """
21.51,582.103,0.03602, NaN, NaN, NaN,0.03601294," ""- N/A -   """
21.6,585.651,0.0361755, NaN, NaN, NaN,0.0335714," ""- N/A -   """
21.69,588.8449,0.0363282, NaN, NaN, NaN,0.0347922," ""- N/A -   """
21.78,591.684,0.03646153, NaN, NaN, NaN,0.04089605," ""- N/A -   """
21.87,595.1138,0.036617, NaN, NaN, NaN,0.0384545," ""- N/A -   """
21.96,598.544,0.0367697, NaN, NaN, NaN,0.0372337," ""- N/A -   """
22.05,601.8558,0.03691969, NaN, NaN, NaN,0.0372337," ""- N/A -   """
22.14,605.286,0.0370724, NaN, NaN, NaN,0.03601294," ""- N/A -   """
22.23,608.8344,0.03723069, NaN, NaN, NaN,0.0323506," ""- N/A -   """
22.32,612.028,0.03737508, NaN, NaN, NaN,0.0347922," ""- N/A -   """
22.41,615.3398,0.037525, NaN, NaN, NaN,0.0347922," ""- N/A -   """
22.5,618.2968,0.0376666, NaN, NaN, NaN,0.0384545," ""- N/A -   """
22.59,621.254,0.0378055, NaN, NaN, NaN,0.0433376," ""- N/A -   """
22.68,624.566,0.0379526, NaN, NaN, NaN,0.04577916," ""- N/A -   """
22.77,628.5873,0.03812758, NaN, NaN, NaN,0.0335714," ""- N/A -   """
22.86,631.663,0.0382747, NaN, NaN, NaN,0.0347922," ""- N/A -   """
22.95,635.211,0.03843302, NaN, NaN, NaN,0.0323506," ""- N/A -   """
23.04,638.6411,0.038583, NaN, NaN, NaN,0.03112983," ""- N/A -   """
23.13,641.716,0.0387246, NaN, NaN, NaN,0.03601294," ""- N/A -   """
23.22,644.4369,0.03885231, NaN, NaN, NaN,0.04577916," ""- N/A -   """
23.31,647.985,0.039005, NaN, NaN, NaN,0.0445584," ""- N/A -   """
23.4,651.652,0.0391661, NaN, NaN, NaN,0.0384545," ""- N/A -   """
23.49,655.3187,0.0393271, NaN, NaN, NaN,0.0335714," ""- N/A -   """
23.58,658.8672,0.03948541, NaN, NaN, NaN,0.0299091," ""- N/A -   """
23.67,662.2973,0.0396409, NaN, NaN, NaN,0.0286883," ""- N/A -   """
23.76,665.018,0.03976586, NaN, NaN, NaN,0.0384545," ""- N/A -   """
23.85,667.8565,0.0398991, NaN, NaN, NaN,0.04577916," ""- N/A -   """
23.94,671.2866,0.04004909, NaN, NaN, NaN,0.04577916," ""- N/A -   """
24.03,675.072,0.0402101, NaN, NaN, NaN,0.04089605," ""- N/A -   """
24.12,679.2115,0.0403851, NaN, NaN, NaN,0.0299091," ""- N/A -   """
24.21,682.5233,0.0405378, NaN, NaN, NaN,0.0286883," ""- N/A -   """
24.3,685.599,0.04067664, NaN, NaN, NaN,0.0347922," ""- N/A -   """
24.39,689.029,0.0408238, NaN, NaN, NaN,0.0347922," ""- N/A -   """
24.48,692.2224,0.0409682, NaN, NaN, NaN,0.0384545," ""- N/A -   """
24.57,695.298,0.0411043, NaN, NaN, NaN,0.0445584," ""- N/A -   """
24.66,698.4913,0.04124865, NaN, NaN, NaN,0.04577916," ""- N/A -   """
24.75,702.986,0.0414319, NaN, NaN, NaN,0.0323506," ""- N/A -   """
24.84,706.4161,0.0415846, NaN, NaN, NaN,0.0299091," ""- N/A -   """
24.93,709.491,0.04172347, NaN, NaN, NaN,0.0347922," ""- N/A -   """
25.02,713.1581,0.04187897, NaN, NaN, NaN,0.0323506," ""- N/A -   """
25.11,716.3517,0.04202336, NaN, NaN, NaN,0.0347922," ""- N/A -   """
25.2,719.19,0.0421566, NaN, NaN, NaN,0.0433376," ""- N/A -   """
25.29,722.857,0.0423094, NaN, NaN, NaN,0.04089605," ""- N/A -   """
25.38,726.5238,0.0424676, NaN, NaN, NaN,0.0372337," ""- N/A -   """
25.47,729.9539,0.0426204, NaN, NaN, NaN,0.03601294," ""- N/A -   """
25.56,733.6206,0.0427759, NaN, NaN, NaN,0.0347922," ""- N/A -   """
25.65,736.933,0.04292581, NaN, NaN, NaN,0.0335714," ""- N/A -   """
25.74,740.481,0.0430785, NaN, NaN, NaN,0.0323506," ""- N/A -   """
25.83,743.9111,0.0432285, NaN, NaN, NaN,0.0323506," ""- N/A -   """
25.92,747.1047,0.04337009, NaN, NaN, NaN,0.0372337," ""- N/A -   """
26.01,750.0617,0.04350337, NaN, NaN, NaN,0.0433376," ""- N/A -   """
26.1,753.7284,0.0436589, NaN, NaN, NaN,0.04089605," ""- N/A -   """
26.19,757.75,0.0438283, NaN, NaN, NaN,0.0335714," ""- N/A -   """
26.28,761.0618,0.0439754, NaN, NaN, NaN,0.0347922," ""- N/A -   """
26.37,764.965,0.0441392, NaN, NaN, NaN,0.0299091," ""- N/A -   """
26.46,768.395,0.0442892, NaN, NaN, NaN,0.0299091," ""- N/A -   """
26.55,770.997,0.0444169, NaN, NaN, NaN,0.0384545," ""- N/A -   """
26.64,774.0727,0.0445474, NaN, NaN, NaN,0.04699994," ""- N/A -   """
26.73,777.6211,0.04470293, NaN, NaN, NaN,0.04577916," ""- N/A -   """
26.82,781.761,0.0448751, NaN, NaN, NaN,0.03601294," ""- N/A -   """
26.91,785.1911,0.04502503, NaN, NaN, NaN,0.0347922," ""- N/A -   """
27,789.094,0.04518886, NaN, NaN, NaN,0.0286883," ""- N/A -   """
27.09,792.525,0.045336, NaN, NaN, NaN,0.0299091," ""- N/A -   """
27.18,795.4815,0.0454749, NaN, NaN, NaN,0.0347922," ""- N/A -   """
27.27,798.5568,0.04560815, NaN, NaN, NaN,0.04211683," ""- N/A -   """
27.36,801.8687,0.0457498, NaN, NaN, NaN,0.04577916," ""- N/A -   """
27.45,805.4171,0.0459025, NaN, NaN, NaN,0.0445584," ""- N/A -   """
27.54,809.7935,0.0460858, NaN, NaN, NaN,0.0299091," ""- N/A -   """
27.63,813.4602,0.04623569, NaN, NaN, NaN,0.0299091," ""- N/A -   """
27.72,816.6538,0.0463801, NaN, NaN, NaN,0.0323506," ""- N/A -   """
27.81,819.847,0.0465245, NaN, NaN, NaN,0.0347922," ""- N/A -   """
27.9,823.159,0.04666887, NaN, NaN, NaN,0.0372337," ""- N/A -   """
27.99,826.1163,0.0467994, NaN, NaN, NaN,0.04577916," ""- N/A -   """
28.08,829.901,0.0469549, NaN, NaN, NaN,0.0433376," ""- N/A -   """
28.17,834.159,0.04712981, NaN, NaN, NaN,0.0323506," ""- N/A -   """
28.26,837.5895,0.0472798, NaN, NaN, NaN,0.0323506," ""- N/A -   """
28.35,840.9014,0.04742414, NaN, NaN, NaN,0.0347922," ""- N/A -   """
28.44,844.686,0.04758242, NaN, NaN, NaN,0.0323506," ""- N/A -   """
28.53,848.116,0.0477296, NaN, NaN, NaN,0.0335714," ""- N/A -   """
28.62,851.0735,0.0478601, NaN, NaN, NaN,0.04089605," ""- N/A -   """
28.71,854.8585,0.04801837, NaN, NaN, NaN,0.0372337," ""- N/A -   """
28.8,858.17,0.0481628, NaN, NaN, NaN,0.0396753," ""- N/A -   """
28.89,861.9554,0.04831826, NaN, NaN, NaN,0.0372337," ""- N/A -   """
28.98,865.2672,0.04847098, NaN, NaN, NaN,0.03601294," ""- N/A -   """
29.07,868.9339,0.0486237, NaN, NaN, NaN,0.0347922," ""- N/A -   """
29.16,872.601,0.048782, NaN, NaN, NaN,0.03112983," ""- N/A -   """
29.25,876.031,0.0489291, NaN, NaN, NaN,0.0323506," ""- N/A -   """
29.34,879.224,0.0490652, NaN, NaN, NaN,0.0384545," ""- N/A -   """
29.43,882.2996,0.0492013, NaN, NaN, NaN,0.0445584," ""- N/A -   """
29.52,886.085,0.0493568, NaN, NaN, NaN,0.04211683," ""- N/A -   """
29.61,890.1062,0.04952337, NaN, NaN, NaN,0.0347922," ""- N/A -   """
29.7,893.5364,0.0496733, NaN, NaN, NaN,0.0347922," ""- N/A -   """
29.79,897.4396,0.0498371, NaN, NaN, NaN,0.0299091," ""- N/A -   """
29.88,900.751,0.0499815, NaN, NaN, NaN,0.03112983," ""- N/A -   """
29.97,903.7085,0.05011204, NaN, NaN, NaN,0.0396753," ""- N/A -   """
30.06,907.0204,0.05025643, NaN, NaN, NaN,0.0433376," ""- N/A -   """
30.15,910.6871,0.05041193, NaN, NaN, NaN,0.04089605," ""- N/A -   """
30.24,914.59,0.05057298, NaN, NaN, NaN,0.03601294," ""- N/A -   """
30.33,918.02,0.0507229, NaN, NaN, NaN,0.0347922," ""- N/A -   """
30.42,922.042,0.05088398, NaN, NaN, NaN,0.0299091," ""- N/A -   """
30.51,925.472,0.0510367, NaN, NaN, NaN,0.0286883," ""- N/A -   """
30.6,928.4292,0.05117, NaN, NaN, NaN,0.03601294," ""- N/A -   """
30.69,931.504,0.051306, NaN, NaN, NaN,0.0445584," ""- N/A -   """
30.78,935.1712,0.05145876, NaN, NaN, NaN,0.04211683," ""- N/A -   """
30.87,938.8379,0.0516115, NaN, NaN, NaN,0.04089605," ""- N/A -   """
30.96,942.9778,0.0517836, NaN, NaN, NaN,0.03112983," ""- N/A -   """
31.011,945.1068,0.0518697, NaN, NaN, NaN,0.03112983," ""- N/A -   """