File: 2_Tensile_Data/Hamel_ForceTest_Bolt3_Test11.csv
Time, Load (lb), Position (in), AxialStrain (in), TransverseStrain (in), Auxiliary (), Control Out (V), Stress (psi)
0.0, 10.8512, 0.0, NaN, NaN, NaN, -0.007935055, "- N/A -   "
0.01, 10.9691, 0.0, NaN, NaN, NaN, -6.103888E-4, "- N/A -   "
0.02, 10.9691, 0.0, NaN, NaN, NaN, 0.007935055, "- N/A -   "
0.03, 10.9691, 2.776752E-6, NaN, NaN, NaN, 0.0262467, "- N/A -   "
0.04, 11.0871, 5.553504E-6, NaN, NaN, NaN, 0.0445584, "- N/A -   "
0.05, 11.205, 1.66605e-05, NaN, NaN, NaN, 0.0592077, "- N/A -   "
0.06, 11.5589, 3.3321e-05, NaN, NaN, NaN, 0.07141549, "- N/A -   "
0.07, 12.0306, 5.27583e-05, NaN, NaN, NaN, 0.08240249, "- N/A -   "
0.08, 12.5024, 8.05258E-5, NaN, NaN, NaN, 0.09094793, "- N/A -   "
0.09, 13.2101, 0.000105517, NaN, NaN, NaN, 0.0982726, "- N/A -   "
0.1, 13.9178, 1.388376E-4, NaN, NaN, NaN, 0.103156, "- N/A -   "
0.11, 14.5075, 0.000169382, NaN, NaN, NaN, 0.095831, "- N/A -   "
0.12, 15.2152, 0.000202703, NaN, NaN, NaN, 0.0897272, "- N/A -   "
0.13, 15.805, 0.000227694, NaN, NaN, NaN, 0.084844, "- N/A -   "
0.14, 16.3947, 0.000255461, NaN, NaN, NaN, 0.0799609, "- N/A -   "
0.15, 16.9844, 2.832287E-4, NaN, NaN, NaN, 0.0762986, "- N/A -   "
0.16, 17.4562, 3.054427E-4, NaN, NaN, NaN, 0.07385705, "- N/A -   "
0.17, 17.8101, 0.00032488, NaN, NaN, NaN, 0.07141549, "- N/A -   "
0.18, 18.2819, 0.000344317, NaN, NaN, NaN, 0.0701947, "- N/A -   "
0.19, 18.7536, 0.000366531, NaN, NaN, NaN, 0.06775316, "- N/A -   "
0.2, 19.1075, 0.000383192, NaN, NaN, NaN, 0.06775316, "- N/A -   "
0.21, 19.4613, 0.000402629, NaN, NaN, NaN, 0.06653238, "- N/A -   "
0.22, 19.6972, 4.192895E-4, NaN, NaN, NaN, 0.06653238, "- N/A -   "
0.23, 20.169, 0.00043595, NaN, NaN, NaN, 0.06653238, "- N/A -   "
0.24, 20.6408, 4.553873E-4, NaN, NaN, NaN, 0.0653116, "- N/A -   "
0.25, 20.99465, 0.000474825, NaN, NaN, NaN, 0.0653116, "- N/A -   "
0.26, 21.3485, 0.000491485, NaN, NaN, NaN, 0.0640908, "- N/A -   "
0.27, 21.7023, 0.000510922, NaN, NaN, NaN, 0.0640908, "- N/A -   "
0.28, 22.0562, 0.00053036, NaN, NaN, NaN, 0.06287005, "- N/A -   "
0.29, 22.528, 0.000549797, NaN, NaN, NaN, 0.0604285, "- N/A -   "
0.3, 22.9998, 5.720109E-4, NaN, NaN, NaN, 0.0592077, "- N/A -   "
0.31, 23.4715, 5.942249E-4, NaN, NaN, NaN, 0.0555454, "- N/A -   "
0.32, 23.9433, 6.164389E-4, NaN, NaN, NaN, 0.0531038, "- N/A -   "
0.33, 24.5331, 0.000638653, NaN, NaN, NaN, 0.05188305, "- N/A -   "
0.34, 25.0049, 0.00065809, NaN, NaN, NaN, 0.0494415, "- N/A -   "
0.35, 25.3587, 0.000677527, NaN, NaN, NaN, 0.0482207, "- N/A -   "
0.36, 25.7125, 6.969647E-4, NaN, NaN, NaN, 0.04699994, "- N/A -   "
0.37, 26.18434, 0.000716402, NaN, NaN, NaN, 0.04577916, "- N/A -   "
0.38, 26.6561, 0.000735839, NaN, NaN, NaN, 0.0445584, "- N/A -   "
0.39, 27.1279, 7.552765E-4, NaN, NaN, NaN, 0.0433376, "- N/A -   "
0.4, 27.3638, 0.000774714, NaN, NaN, NaN, 0.04211683, "- N/A -   "
0.41, 27.7177, 0.000794151, NaN, NaN, NaN, 0.04211683, "- N/A -   "
0.42, 28.1894, 8.108115E-4, NaN, NaN, NaN, 0.04089605, "- N/A -   "
0.43, 28.54329, 8.27472E-4, NaN, NaN, NaN, 0.04089605, "- N/A -   "
0.44, 28.89713, 8.469093E-4, NaN, NaN, NaN, 0.0396753, "- N/A -   "
0.45, 29.251, 8.635698E-4, NaN, NaN, NaN, 0.0396753, "- N/A -   "
0.46, 29.7228, 8.830071E-4, NaN, NaN, NaN, 0.0384545, "- N/A -   "
0.5, 31.374, 0.000957979, NaN, NaN, NaN, 0.0347922, "- N/A -   "
0.54, 32.9073, 0.00103295, NaN, NaN, NaN, 0.03112983, "- N/A -   "
0.58, 34.4407, 0.00110515, NaN, NaN, NaN, 0.0299091, "- N/A -   "
0.62, 35.85603, 0.00116901, NaN, NaN, NaN, 0.0299091, "- N/A -   "
0.66, 37.15345, 0.00123288, NaN, NaN, NaN, 0.03112983, "- N/A -   "
0.7, 38.4509, 0.00129397, NaN, NaN, NaN, 0.0335714, "- N/A -   "
0.74, 39.7483, 0.00135228, NaN, NaN, NaN, 0.0372337, "- N/A -   "
0.78, 40.8098, 0.00141059, NaN, NaN, NaN, 0.04211683, "- N/A -   "
0.82, 42.2252, 0.00147168, NaN, NaN, NaN, 0.0445584, "- N/A -   "
0.86, 43.6406, 0.00153554, NaN, NaN, NaN, 0.0445584, "- N/A -   "
0.9, 45.17388, 0.00160219, NaN, NaN, NaN, 0.0445584, "- N/A -   "
0.94, 46.7072, 0.00167438, NaN, NaN, NaN, 0.04211683, "- N/A -   "
0.98, 48.2405, 0.00174658, NaN, NaN, NaN, 0.04089605, "- N/A -   "
1.02, 49.7738, 0.00181877, NaN, NaN, NaN, 0.0384545, "- N/A -   "
1.06, 51.4251, 0.001890968, NaN, NaN, NaN, 0.0347922, "- N/A -   "
1.1, 53.19431, 0.00197149, NaN, NaN, NaN, 0.0299091, "- N/A -   "
1.14, 54.8456, 0.00204369, NaN, NaN, NaN, 0.0274675, "- N/A -   "
1.18, 56.37889, 0.00210755, NaN, NaN, NaN, 0.0286883, "- N/A -   "
1.22, 57.6763, 0.00217142, NaN, NaN, NaN, 0.0299091, "- N/A -   "
1.26, 58.9737, 0.00223251, NaN, NaN, NaN, 0.0323506, "- N/A -   "
1.3, 60.3891, 0.002293597, NaN, NaN, NaN, 0.0347922, "- N/A -   "
1.34, 61.9224, 0.00235746, NaN, NaN, NaN, 0.0347922, "- N/A -   "
1.38, 63.2198, 0.00242133, NaN, NaN, NaN, 0.0372337, "- N/A -   "
1.42, 64.6352, 0.002482416, NaN, NaN, NaN, 0.0384545, "- N/A -   "
1.46, 66.05058, 0.00254628, NaN, NaN, NaN, 0.0396753, "- N/A -   "
1.5, 67.46596, 0.00260737, NaN, NaN, NaN, 0.0433376, "- N/A -   "
1.54, 68.8813, 0.00266846, NaN, NaN, NaN, 0.0445584, "- N/A -   "
1.58, 70.17874, 0.00272955, NaN, NaN, NaN, 0.04699994, "- N/A -   "
1.62, 71.71206, 0.00279619, NaN, NaN, NaN, 0.0482207, "- N/A -   "
1.66, 73.59922, 0.00287394, NaN, NaN, NaN, 0.0433376, "- N/A -   "
1.7, 75.48638, 0.002954464, NaN, NaN, NaN, 0.03601294, "- N/A -   "
1.74, 77.25559, 0.00302944, NaN, NaN, NaN, 0.0323506, "- N/A -   "
1.78, 78.78891, 0.003098855, NaN, NaN, NaN, 0.03112983, "- N/A -   "
1.82, 80.20428, 0.00316272, NaN, NaN, NaN, 0.0323506, "- N/A -   "
1.86, 81.7376, 0.00322659, NaN, NaN, NaN, 0.0335714, "- N/A -   "
1.9, 83.15297, 0.00329045, NaN, NaN, NaN, 0.03601294, "- N/A -   "
1.94, 84.68629, 0.003357093, NaN, NaN, NaN, 0.03601294, "- N/A -   "
1.98, 86.2196, 0.00342651, NaN, NaN, NaN, 0.0335714, "- N/A -   "
2.02, 87.9888, 0.00349593, NaN, NaN, NaN, 0.0323506, "- N/A -   "
2.06, 89.40418, 0.00356257, NaN, NaN, NaN, 0.0323506, "- N/A -   "
2.1, 90.9375, 0.00362366, NaN, NaN, NaN, 0.0347922, "- N/A -   "
2.14, 92.47082, 0.00368197, NaN, NaN, NaN, 0.0384545, "- N/A -   "
2.18, 93.76824, 0.00374306, NaN, NaN, NaN, 0.04089605, "- N/A -   "
2.22, 95.30156, 0.0038097, NaN, NaN, NaN, 0.04089605, "- N/A -   "
2.26, 96.95282, 0.00387912, NaN, NaN, NaN, 0.04089605, "- N/A -   "
2.3, 98.60408, 0.00394299, NaN, NaN, NaN, 0.04089605, "- N/A -   "
2.34, 100.255, 0.00401796, NaN, NaN, NaN, 0.0384545, "- N/A -   "
2.38, 101.907, 0.00409016, NaN, NaN, NaN, 0.03601294, "- N/A -   "
2.42, 103.558, 0.0041568, NaN, NaN, NaN, 0.0347922, "- N/A -   "
2.46, 105.091, 0.00422344, NaN, NaN, NaN, 0.0347922, "- N/A -   "
2.5, 106.625, 0.004287305, NaN, NaN, NaN, 0.03601294, "- N/A -   "
2.54, 108.158, 0.004353947, NaN, NaN, NaN, 0.03601294, "- N/A -   "
2.58, 110.045, 0.00442892, NaN, NaN, NaN, 0.0323506, "- N/A -   "
2.62, 111.696, 0.004498338, NaN, NaN, NaN, 0.03112983, "- N/A -   "
2.66, 113.348, 0.00456498, NaN, NaN, NaN, 0.03112983, "- N/A -   "
2.7, 114.763, 0.00462885, NaN, NaN, NaN, 0.0323506, "- N/A -   "
2.74, 116.178, 0.00469271, NaN, NaN, NaN, 0.0335714, "- N/A -   "
2.78, 117.947, 0.00475935, NaN, NaN, NaN, 0.0335714, "- N/A -   "
2.82, 119.481, 0.004825995, NaN, NaN, NaN, 0.0335714, "- N/A -   "
2.86, 120.778, 0.004887083, NaN, NaN, NaN, 0.0372337, "- N/A -   "
2.9, 122.194, 0.004948172, NaN, NaN, NaN, 0.0396753, "- N/A -   "
2.94, 123.609, 0.00500648, NaN, NaN, NaN, 0.04211683, "- N/A -   "
2.98, 125.024, 0.0050648, NaN, NaN, NaN, 0.04577916, "- N/A -   "
3.02, 126.676, 0.00513144, NaN, NaN, NaN, 0.04699994, "- N/A -   "
3.06, 128.327, 0.005203633, NaN, NaN, NaN, 0.0445584, "- N/A -   "
3.1, 130.332, 0.00527861, NaN, NaN, NaN, 0.04089605, "- N/A -   "
3.14, 132.219, 0.005356354, NaN, NaN, NaN, 0.03601294, "- N/A -   "
3.18, 133.87, 0.005425773, NaN, NaN, NaN, 0.0335714, "- N/A -   "
3.22, 135.4037, 0.00549242, NaN, NaN, NaN, 0.0335714, "- N/A -   "
3.26, 136.937, 0.00555906, NaN, NaN, NaN, 0.0335714, "- N/A -   "
3.3, 138.588, 0.0056257, NaN, NaN, NaN, 0.0335714, "- N/A -   "
3.34, 140.357, 0.005697895, NaN, NaN, NaN, 0.0323506, "- N/A -   "
3.38, 142.009, 0.005772867, NaN, NaN, NaN, 0.0286883, "- N/A -   "
3.42, 143.542, 0.00583673, NaN, NaN, NaN, 0.0286883, "- N/A -   "
3.46, 145.0754, 0.005897821, NaN, NaN, NaN, 0.03112983, "- N/A -   "
3.5, 146.3728, 0.005956133, NaN, NaN, NaN, 0.0347922, "- N/A -   "
3.54, 147.552, 0.00601167, NaN, NaN, NaN, 0.0396753, "- N/A -   "
3.58, 148.8497, 0.00606998, NaN, NaN, NaN, 0.0445584, "- N/A -   "
3.62, 150.501, 0.006133845, NaN, NaN, NaN, 0.04699994, "- N/A -   "
3.66, 152.034, 0.00619493, NaN, NaN, NaN, 0.0482207, "- N/A -   "
3.7, 153.8035, 0.00626991, NaN, NaN, NaN, 0.0445584, "- N/A -   "
3.74, 155.691, 0.006347655, NaN, NaN, NaN, 0.0396753, "- N/A -   "
3.78, 157.46, 0.00642263, NaN, NaN, NaN, 0.0372337, "- N/A -   "
3.82, 159.111, 0.006492046, NaN, NaN, NaN, 0.03601294, "- N/A -   "
3.86, 160.644, 0.006558688, NaN, NaN, NaN, 0.0347922, "- N/A -   "
3.9, 162.296, 0.00663088, NaN, NaN, NaN, 0.0323506, "- N/A -   "
3.94, 163.947, 0.006705856, NaN, NaN, NaN, 0.0299091, "- N/A -   "
3.98, 165.4803, 0.006772498, NaN, NaN, NaN, 0.0286883, "- N/A -   "
4.02, 167.014, 0.00683914, NaN, NaN, NaN, 0.0299091, "- N/A -   "
4.06, 168.547, 0.00690301, NaN, NaN, NaN, 0.0299091, "- N/A -   "
4.1, 170.08, 0.00696965, NaN, NaN, NaN, 0.03112983, "- N/A -   "
4.14, 171.26, 0.00702518, NaN, NaN, NaN, 0.03601294, "- N/A -   "
4.18, 172.557, 0.00708072, NaN, NaN, NaN, 0.0396753, "- N/A -   "
4.22, 173.855, 0.00713903, NaN, NaN, NaN, 0.0433376, "- N/A -   "
4.26, 175.388, 0.007205671, NaN, NaN, NaN, 0.0433376, "- N/A -   "
4.3, 176.9212, 0.00727231, NaN, NaN, NaN, 0.0433376, "- N/A -   "
4.34, 178.337, 0.0073334, NaN, NaN, NaN, 0.04699994, "- N/A -   "
4.38, 179.87, 0.007397267, NaN, NaN, NaN, 0.0482207, "- N/A -   "
4.42, 181.403, 0.00746946, NaN, NaN, NaN, 0.04577916, "- N/A -   "
4.46, 183.172, 0.00754443, NaN, NaN, NaN, 0.04211683, "- N/A -   "
4.5, 185.178, 0.00762774, NaN, NaN, NaN, 0.0335714, "- N/A -   "
4.54, 186.593, 0.007699933, NaN, NaN, NaN, 0.03112983, "- N/A -   "
4.58, 188.008, 0.007763798, NaN, NaN, NaN, 0.0323506, "- N/A -   "
4.62, 189.5416, 0.007833217, NaN, NaN, NaN, 0.03112983, "- N/A -   "
4.66, 190.957, 0.007899859, NaN, NaN, NaN, 0.03112983, "- N/A -   "
4.7, 192.372, 0.007960948, NaN, NaN, NaN, 0.0335714, "- N/A -   "
4.74, 193.67, 0.008024813, NaN, NaN, NaN, 0.03601294, "- N/A -   "
4.78, 194.967, 0.008088678, NaN, NaN, NaN, 0.03601294, "- N/A -   "
4.82, 196.5, 0.008158097, NaN, NaN, NaN, 0.0347922, "- N/A -   "
4.86, 197.916, 0.00822196, NaN, NaN, NaN, 0.03601294, "- N/A -   "
4.9, 199.095, 0.008283051, NaN, NaN, NaN, 0.0384545, "- N/A -   "
4.94, 200.157, 0.008338586, NaN, NaN, NaN, 0.0433376, "- N/A -   "
4.98, 201.336, 0.008399675, NaN, NaN, NaN, 0.04577916, "- N/A -   "
5.02, 202.634, 0.008463539, NaN, NaN, NaN, 0.0482207, "- N/A -   "
5.06, 204.167, 0.008535735, NaN, NaN, NaN, 0.0445584, "- N/A -   "
5.1, 205.818, 0.008619037, NaN, NaN, NaN, 0.0372337, "- N/A -   "
5.14, 207.352, 0.008699563, NaN, NaN, NaN, 0.0323506, "- N/A -   "
5.18, 208.767, 0.008771759, NaN, NaN, NaN, 0.0299091, "- N/A -   "
5.22, 210.064, 0.008838401, NaN, NaN, NaN, 0.0299091, "- N/A -   "
5.26, 211.126, 0.008896713, NaN, NaN, NaN, 0.0323506, "- N/A -   "
5.3, 212.4234, 0.008957801, NaN, NaN, NaN, 0.0347922, "- N/A -   "
5.34, 213.603, 0.009024444, NaN, NaN, NaN, 0.03601294, "- N/A -   "
5.38, 215.018, 0.009091086, NaN, NaN, NaN, 0.0347922, "- N/A -   "
5.42, 216.434, 0.009163281, NaN, NaN, NaN, 0.0323506, "- N/A -   "
5.46, 217.731, 0.009229923, NaN, NaN, NaN, 0.0323506, "- N/A -   "
5.5, 219.028, 0.009293789, NaN, NaN, NaN, 0.0335714, "- N/A -   "
5.54, 220.09, 0.009354877, NaN, NaN, NaN, 0.0372337, "- N/A -   "
5.58, 221.152, 0.009413189, NaN, NaN, NaN, 0.04089605, "- N/A -   "
5.62, 222.449, 0.009477054, NaN, NaN, NaN, 0.04211683, "- N/A -   "
5.66, 223.982, 0.009546473, NaN, NaN, NaN, 0.0396753, "- N/A -   "
5.7, 225.28, 0.009613114, NaN, NaN, NaN, 0.0396753, "- N/A -   "
5.74, 226.577, 0.009679758, NaN, NaN, NaN, 0.0396753, "- N/A -   "
5.78, 227.875, 0.009749176, NaN, NaN, NaN, 0.0384545, "- N/A -   "
5.82, 229.408, 0.009818594, NaN, NaN, NaN, 0.0372337, "- N/A -   "
5.86, 230.8232, 0.009888013, NaN, NaN, NaN, 0.03601294, "- N/A -   "
5.9, 232.003, 0.009954656, NaN, NaN, NaN, 0.0372337, "- N/A -   "
5.94, 233.418, 0.0100213, NaN, NaN, NaN, 0.03601294, "- N/A -   "
5.98, 234.715, 0.0100907, NaN, NaN, NaN, 0.0347922, "- N/A -   "
5.99, 235.0693, 0.0101074, NaN, NaN, NaN, 0.0347922, "- N/A -   "
6, 235.423, 0.010124, NaN, NaN, NaN, 0.0347922, "- N/A -   "
6.01, 235.777, 0.0101407, NaN, NaN, NaN, 0.0347922, "- N/A -   "
6.02, 236.131, 0.0101601, NaN, NaN, NaN, 0.0347922, "- N/A -   "
6.03, 236.485, 0.0101768, NaN, NaN, NaN, 0.0347922, "- N/A -   "
6.04, 236.721, 0.0101935, NaN, NaN, NaN, 0.0335714, "- N/A -   "
6.05, 237.074, 0.0102101, NaN, NaN, NaN, 0.0335714, "- N/A -   "
6.06, 237.5462, 0.0102268, NaN, NaN, NaN, 0.0335714, "- N/A -   "
6.07, 237.7821, 0.0102434, NaN, NaN, NaN, 0.0347922, "- N/A -   "
6.08, 238.136, 0.0102601, NaN, NaN, NaN, 0.0347922, "- N/A -   "
6.09, 238.372, 0.010274, NaN, NaN, NaN, 0.0347922, "- N/A -   "
6.1, 238.726, 0.01029342, NaN, NaN, NaN, 0.0335714, "- N/A -   "
6.11, 239.08, 0.01031008, NaN, NaN, NaN, 0.0335714, "- N/A -   "
6.12, 239.433, 0.01032674, NaN, NaN, NaN, 0.0335714, "- N/A -   "
6.13, 239.787, 0.0103434, NaN, NaN, NaN, 0.0335714, "- N/A -   "
6.14, 240.141, 0.0103601, NaN, NaN, NaN, 0.0335714, "- N/A -   "
6.15, 240.377, 0.0103767, NaN, NaN, NaN, 0.0335714, "- N/A -   "
6.16, 240.731, 0.0103906, NaN, NaN, NaN, 0.0347922, "- N/A -   "
6.17, 240.967, 0.01041, NaN, NaN, NaN, 0.0347922, "- N/A -   "
6.18, 241.321, 0.0104267, NaN, NaN, NaN, 0.0347922, "- N/A -   "
6.19, 241.674, 0.0104434, NaN, NaN, NaN, 0.0335714, "- N/A -   "
6.2, 242.146, 0.0104628, NaN, NaN, NaN, 0.0335714, "- N/A -   "
6.21, 242.382, 0.0104795, NaN, NaN, NaN, 0.0335714, "- N/A -   "
6.22, 242.853, 0.0104961, NaN, NaN, NaN, 0.0335714, "- N/A -   "
6.23, 243.089, 0.01051, NaN, NaN, NaN, 0.0335714, "- N/A -   "
6.24, 243.443, 0.01052389, NaN, NaN, NaN, 0.0347922, "- N/A -   "
6.25, 243.678, 0.0105378, NaN, NaN, NaN, 0.03601294, "- N/A -   "
6.26, 243.914, 0.0105544, NaN, NaN, NaN, 0.03601294, "- N/A -   "
6.27, 244.2674, 0.0105683, NaN, NaN, NaN, 0.0372337, "- N/A -   "
6.28, 244.621, 0.010585, NaN, NaN, NaN, 0.0372337, "- N/A -   "
6.29, 244.857, 0.0106016, NaN, NaN, NaN, 0.0384545, "- N/A -   "
6.3, 245.092, 0.0106155, NaN, NaN, NaN, 0.0384545, "- N/A -   "
6.31, 245.446, 0.0106294, NaN, NaN, NaN, 0.0396753, "- N/A -   "
6.32, 245.799, 0.0106461, NaN, NaN, NaN, 0.0396753, "- N/A -   "
6.33, 246.153, 0.0106627, NaN, NaN, NaN, 0.0396753, "- N/A -   "
6.34, 246.506, 0.0106794, NaN, NaN, NaN, 0.04089605, "- N/A -   "
6.35, 246.742, 0.010696, NaN, NaN, NaN, 0.04089605, "- N/A -   "
6.36, 247.095, 0.0107099, NaN, NaN, NaN, 0.04089605, "- N/A -   "
6.37, 247.4487, 0.01072937, NaN, NaN, NaN, 0.04089605, "- N/A -   "
6.38, 247.802, 0.0107433, NaN, NaN, NaN, 0.04089605, "- N/A -   "
6.39, 248.038, 0.0107571, NaN, NaN, NaN, 0.04211683, "- N/A -   "
6.4, 248.273, 0.0107738, NaN, NaN, NaN, 0.0433376, "- N/A -   "
6.41, 248.627, 0.0107877, NaN, NaN, NaN, 0.0433376, "- N/A -   "
6.42, 248.98, 0.0108043, NaN, NaN, NaN, 0.0433376, "- N/A -   "
6.43, 249.452, 0.0108238, NaN, NaN, NaN, 0.04211683, "- N/A -   "
6.44, 249.6874, 0.0108404, NaN, NaN, NaN, 0.0433376, "- N/A -   "
6.45, 250.041, 0.0108571, NaN, NaN, NaN, 0.0433376, "- N/A -   "
6.46, 250.394, 0.0108738, NaN, NaN, NaN, 0.04211683, "- N/A -   "
6.47, 250.748, 0.0108932, NaN, NaN, NaN, 0.04211683, "- N/A -   "
6.48, 251.219, 0.0109099, NaN, NaN, NaN, 0.04089605, "- N/A -   "
6.49, 251.5726, 0.0109293, NaN, NaN, NaN, 0.0396753, "- N/A -   "
6.5, 251.926, 0.0109487, NaN, NaN, NaN, 0.0384545, "- N/A -   "
6.51, 252.397, 0.01096817, NaN, NaN, NaN, 0.0372337, "- N/A -   "
6.52, 252.751, 0.0109876, NaN, NaN, NaN, 0.03601294, "- N/A -   "
6.53, 253.222, 0.011007, NaN, NaN, NaN, 0.03601294, "- N/A -   "
6.54, 253.576, 0.0110265, NaN, NaN, NaN, 0.0335714, "- N/A -   "
6.55, 253.929, 0.0110459, NaN, NaN, NaN, 0.0335714, "- N/A -   "
6.56, 254.283, 0.0110626, NaN, NaN, NaN, 0.0323506, "- N/A -   "
6.57, 254.6361, 0.011082, NaN, NaN, NaN, 0.0323506, "- N/A -   "
6.58, 255.1074, 0.0110987, NaN, NaN, NaN, 0.03112983, "- N/A -   "
6.59, 255.343, 0.0111153, NaN, NaN, NaN, 0.03112983, "- N/A -   "
6.6, 255.579, 0.0111292, NaN, NaN, NaN, 0.0323506, "- N/A -   "
6.61, 255.932, 0.0111459, NaN, NaN, NaN, 0.0335714, "- N/A -   "
6.62, 256.286, 0.0111598, NaN, NaN, NaN, 0.0335714, "- N/A -   "
6.63, 256.639, 0.0111764, NaN, NaN, NaN, 0.0335714, "- N/A -   "
6.64, 256.8748, 0.0111931, NaN, NaN, NaN, 0.0335714, "- N/A -   "
6.65, 257.228, 0.0112097, NaN, NaN, NaN, 0.0335714, "- N/A -   "
6.66, 257.582, 0.0112264, NaN, NaN, NaN, 0.0335714, "- N/A -   "
6.67, 257.9352, 0.0112431, NaN, NaN, NaN, 0.0347922, "- N/A -   "
6.68, 258.2887, 0.0112597, NaN, NaN, NaN, 0.0347922, "- N/A -   "
6.69, 258.642, 0.0112764, NaN, NaN, NaN, 0.0347922, "- N/A -   "
6.7, 258.996, 0.01129305, NaN, NaN, NaN, 0.0335714, "- N/A -   "
6.71, 259.231, 0.0113097, NaN, NaN, NaN, 0.0335714, "- N/A -   "
6.72, 259.585, 0.0113291, NaN, NaN, NaN, 0.0323506, "- N/A -   "
[...]
14.77, 557.1456, 0.02475752, NaN, NaN, NaN, 0.0274675, "- N/A -   "
15.03, 566.6081, 0.0251657, NaN, NaN, NaN, 0.0384545, "- N/A -   "
15.29, 576.7802, 0.0255905, NaN, NaN, NaN, 0.04211683, "- N/A -   "
15.55, 587.4255, 0.0260348, NaN, NaN, NaN, 0.0372337, "- N/A -   "
15.81, 597.716, 0.0264624, NaN, NaN, NaN, 0.0396753, "- N/A -   "
16.07, 608.3612, 0.0269012, NaN, NaN, NaN, 0.0372337, "- N/A -   "
16.33, 619.125, 0.0273455, NaN, NaN, NaN, 0.0323506, "- N/A -   "
16.59, 629.179, 0.0277592, NaN, NaN, NaN, 0.04089605, "- N/A -   "
16.85, 640.2971, 0.0282118, NaN, NaN, NaN, 0.0323506, "- N/A -   "
17.11, 650.7058, 0.028645, NaN, NaN, NaN, 0.0323506, "- N/A -   "
17.37, 660.878, 0.0290615, NaN, NaN, NaN, 0.04089605, "- N/A -   "
17.63, 672.3512, 0.02951965, NaN, NaN, NaN, 0.0299091, "- N/A -   "
17.89, 681.814, 0.0299195, NaN, NaN, NaN, 0.0445584, "- N/A -   "
18.15, 693.287, 0.03038044, NaN, NaN, NaN, 0.0335714, "- N/A -   "
18.41, 703.6956, 0.0308053, NaN, NaN, NaN, 0.03601294, "- N/A -   "
18.67, 713.986, 0.031219, NaN, NaN, NaN, 0.0445584, "- N/A -   "
18.93, 725.341, 0.0316772, NaN, NaN, NaN, 0.0335714, "- N/A -   "
19.19, 735.868, 0.032102, NaN, NaN, NaN, 0.0372337, "- N/A -   "
19.45, 746.7498, 0.0325352, NaN, NaN, NaN, 0.0372337, "- N/A -   "
19.71, 757.75, 0.0329739, NaN, NaN, NaN, 0.0347922, "- N/A -   "
19.97, 768.0404, 0.033396, NaN, NaN, NaN, 0.04089605, "- N/A -   "
20.23, 779.3953, 0.0338458, NaN, NaN, NaN, 0.0335714, "- N/A -   "
20.49, 790.395, 0.0342846, NaN, NaN, NaN, 0.0299091, "- N/A -   "
20.75, 799.9762, 0.03468163, NaN, NaN, NaN, 0.04577916, "- N/A -   "
21.01, 811.804, 0.03515368, NaN, NaN, NaN, 0.0286883, "- N/A -   "
21.27, 821.858, 0.03555353, NaN, NaN, NaN, 0.0433376, "- N/A -   "
21.53, 832.9765, 0.0360034, NaN, NaN, NaN, 0.0372337, "- N/A -   "
21.79, 843.9767, 0.03644209, NaN, NaN, NaN, 0.0347922, "- N/A -   "
22.05, 854.267, 0.0368531, NaN, NaN, NaN, 0.0445584, "- N/A -   "
22.31, 866.213, 0.0373195, NaN, NaN, NaN, 0.0299091, "- N/A -   "
22.57, 876.7405, 0.0377333, NaN, NaN, NaN, 0.0384545, "- N/A -   "
22.83, 887.7406, 0.0381665, NaN, NaN, NaN, 0.0384545, "- N/A -   "
23.09, 899.2138, 0.0386191, NaN, NaN, NaN, 0.0299091, "- N/A -   "
23.35, 909.386, 0.0390272, NaN, NaN, NaN, 0.04089605, "- N/A -   "
23.61, 920.8592, 0.0394715, NaN, NaN, NaN, 0.0372337, "- N/A -   "
23.87, 932.3325, 0.0399158, NaN, NaN, NaN, 0.03112983, "- N/A -   "
24.13, 942.268, 0.0403101, NaN, NaN, NaN, 0.0482207, "- N/A -   "
24.39, 954.451, 0.0407877, NaN, NaN, NaN, 0.0286883, "- N/A -   "
24.65, 964.7414, 0.0411987, NaN, NaN, NaN, 0.0384545, "- N/A -   "
24.91, 975.9781, 0.0416291, NaN, NaN, NaN, 0.04089605, "- N/A -   "
25.17, 987.57, 0.0420761, NaN, NaN, NaN, 0.0335714, "- N/A -   "
25.43, 998.3332, 0.04248986, NaN, NaN, NaN, 0.04211683, "- N/A -   "
25.69, 1010.28, 0.0429508, NaN, NaN, NaN, 0.03112983, "- N/A -   "
25.95, 1021.35, 0.0433756, NaN, NaN, NaN, 0.0335714, "- N/A -   "
26.21, 1032.32, 0.04379771, NaN, NaN, NaN, 0.0396753, "- N/A -   "
26.47, 1044.01, 0.044242, NaN, NaN, NaN, 0.0347922, "- N/A -   "
26.73, 1054.98, 0.04466683, NaN, NaN, NaN, 0.0384545, "- N/A -   "
26.99, 1066.66, 0.0451056, NaN, NaN, NaN, 0.0372337, "- N/A -   "
27.25, 1078.47, 0.04555539, NaN, NaN, NaN, 0.0299091, "- N/A -   "
27.51, 1088.84, 0.04594969, NaN, NaN, NaN, 0.04577916, "- N/A -   "
27.77, 1101.01, 0.0464162, NaN, NaN, NaN, 0.0323506, "- N/A -   "
28.03, 1111.74, 0.04682437, NaN, NaN, NaN, 0.0433376, "- N/A -   "
28.29, 1123.07, 0.0472548, NaN, NaN, NaN, 0.0445584, "- N/A -   "
28.55, 1135.47, 0.04772126, NaN, NaN, NaN, 0.0286883, "- N/A -   "
28.81, 1146.09, 0.04812944, NaN, NaN, NaN, 0.0396753, "- N/A -   "
29.07, 1158.25, 0.0485821, NaN, NaN, NaN, 0.0323506, "- N/A -   "
29.33, 1169.58, 0.0490125, NaN, NaN, NaN, 0.0323506, "- N/A -   "
29.59, 1180.55, 0.0494317, NaN, NaN, NaN, 0.0396753, "- N/A -   "
29.85, 1192.59, 0.0498816, NaN, NaN, NaN, 0.03112983, "- N/A -   "
30.11, 1203.8, 0.05031197, NaN, NaN, NaN, 0.0335714, "- N/A -   "
30.37, 1214.655, 0.0507202, NaN, NaN, NaN, 0.0433376, "- N/A -   "
30.63, 1226.938, 0.0511811, NaN, NaN, NaN, 0.03112983, "- N/A -   "
30.89, 1237.55, 0.0515837, NaN, NaN, NaN, 0.04577916, "- N/A -   "
31.15, 1249.95, 0.0520447, NaN, NaN, NaN, 0.0347922, "- N/A -   "
31.41, 1261.28, 0.05247506, NaN, NaN, NaN, 0.0347922, "- N/A -   "
31.67, 1272.25, 0.05288602, NaN, NaN, NaN, 0.0445584, "- N/A -   "
31.93, 1284.656, 0.0533497, NaN, NaN, NaN, 0.03112983, "- N/A -   "
32.19, 1295.63, 0.05376347, NaN, NaN, NaN, 0.04089605, "- N/A -   "
32.45, 1307.67, 0.05421053, NaN, NaN, NaN, 0.0335714, "- N/A -   "
32.71, 1319.48, 0.05465203, NaN, NaN, NaN, 0.03112983, "- N/A -   "
32.97, 1330.45, 0.05506577, NaN, NaN, NaN, 0.0384545, "- N/A -   "
33.23, 1342.25, 0.0555045, NaN, NaN, NaN, 0.03601294, "- N/A -   "
33.49, 1353.94, 0.0559432, NaN, NaN, NaN, 0.0335714, "- N/A -   "
33.75, 1365.15, 0.0563597, NaN, NaN, NaN, 0.04089605, "- N/A -   "
34.01, 1377.31, 0.0568179, NaN, NaN, NaN, 0.0299091, "- N/A -   "
34.27, 1388.17, 0.05722608, NaN, NaN, NaN, 0.04089605, "- N/A -   "
34.53, 1400.33, 0.0576731, NaN, NaN, NaN, 0.0347922, "- N/A -   "
34.79, 1412.14, 0.0581202, NaN, NaN, NaN, 0.0299091, "- N/A -   "
35.05, 1422.51, 0.05852005, NaN, NaN, NaN, 0.0445584, "- N/A -   "
35.31, 1435.15, 0.05898654, NaN, NaN, NaN, 0.0299091, "- N/A -   "
35.57, 1446.48, 0.0594058, NaN, NaN, NaN, 0.03601294, "- N/A -   "
35.83, 1457.93, 0.0598335, NaN, NaN, NaN, 0.0384545, "- N/A -   "
36.09, 1469.62, 0.0602694, NaN, NaN, NaN, 0.0372337, "- N/A -   "
36.35, 1481.18, 0.06069702, NaN, NaN, NaN, 0.0396753, "- N/A -   "
36.61, 1492.87, 0.0611385, NaN, NaN, NaN, 0.03601294, "- N/A -   "
36.87, 1504.56, 0.0615745, NaN, NaN, NaN, 0.0347922, "- N/A -   "
37.13, 1515.41, 0.0619827, NaN, NaN, NaN, 0.04699994, "- N/A -   "
37.39, 1527.81, 0.06244082, NaN, NaN, NaN, 0.03601294, "- N/A -   "
37.65, 1539.5, 0.06287122, NaN, NaN, NaN, 0.0372337, "- N/A -   "
37.91, 1551.3, 0.0633127, NaN, NaN, NaN, 0.0323506, "- N/A -   "
38.17, 1563.23, 0.06375978, NaN, NaN, NaN, 0.0274675, "- N/A -   "
38.43, 1573.72, 0.06415408, NaN, NaN, NaN, 0.0433376, "- N/A -   "
38.69, 1586.24, 0.0646178, NaN, NaN, NaN, 0.03112983, "- N/A -   "
38.95, 1597.57, 0.06504264, NaN, NaN, NaN, 0.0347922, "- N/A -   "
39.21, 1609.14, 0.0654675, NaN, NaN, NaN, 0.0372337, "- N/A -   "
39.47, 1620.83, 0.0659062, NaN, NaN, NaN, 0.0347922, "- N/A -   "
39.73, 1631.92, 0.0663255, NaN, NaN, NaN, 0.04089605, "- N/A -   "
39.99, 1644.08, 0.06677255, NaN, NaN, NaN, 0.03601294, "- N/A -   "
40.25, 1655.53, 0.06720573, NaN, NaN, NaN, 0.03601294, "- N/A -   "
40.51, 1666.62, 0.0676222, NaN, NaN, NaN, 0.0433376, "- N/A -   "
40.77, 1678.9, 0.06807763, NaN, NaN, NaN, 0.0335714, "- N/A -   "
41.03, 1690.23, 0.06850802, NaN, NaN, NaN, 0.0347922, "- N/A -   "
41.29, 1701.56, 0.06893287, NaN, NaN, NaN, 0.0384545, "- N/A -   "
41.55, 1713.25, 0.0693799, NaN, NaN, NaN, 0.0335714, "- N/A -   "
41.81, 1724.1, 0.06979366, NaN, NaN, NaN, 0.04089605, "- N/A -   "
42.07, 1736.5, 0.07025737, NaN, NaN, NaN, 0.0286883, "- N/A -   "
42.33, 1747.47, 0.07067667, NaN, NaN, NaN, 0.0335714, "- N/A -   "
42.59, 1758.32, 0.07108763, NaN, NaN, NaN, 0.0433376, "- N/A -   "
42.85, 1770.01, 0.07153468, NaN, NaN, NaN, 0.0372337, "- N/A -   "
43.11, 1781.34, 0.0719623, NaN, NaN, NaN, 0.0396753, "- N/A -   "
43.37, 1793.03, 0.07240381, NaN, NaN, NaN, 0.03601294, "- N/A -   "
43.63, 1804.59, 0.07284253, NaN, NaN, NaN, 0.0335714, "- N/A -   "
43.89, 1815.208, 0.07325627, NaN, NaN, NaN, 0.04211683, "- N/A -   "
44.15, 1827.37, 0.0737061, NaN, NaN, NaN, 0.0347922, "- N/A -   "
44.41, 1838.82, 0.0741476, NaN, NaN, NaN, 0.0323506, "- N/A -   "
44.67, 1849.67, 0.07456412, NaN, NaN, NaN, 0.04089605, "- N/A -   "
44.93, 1861.84, 0.07501951, NaN, NaN, NaN, 0.0299091, "- N/A -   "
45.19, 1871.85, 0.07541658, NaN, NaN, NaN, 0.04699994, "- N/A -   "
45.45, 1884.25, 0.0758775, NaN, NaN, NaN, 0.0335714, "- N/A -   "
45.71, 1895.35, 0.0763024, NaN, NaN, NaN, 0.0372337, "- N/A -   "
45.97, 1906.078, 0.07671888, NaN, NaN, NaN, 0.0445584, "- N/A -   "
46.23, 1918.24, 0.07717704, NaN, NaN, NaN, 0.0335714, "- N/A -   "
46.49, 1929.09, 0.07759355, NaN, NaN, NaN, 0.04089605, "- N/A -   "
46.75, 1940.54, 0.0780351, NaN, NaN, NaN, 0.0384545, "- N/A -   "
47.01, 1951.75, 0.07847101, NaN, NaN, NaN, 0.03601294, "- N/A -   "
47.27, 1962.6, 0.07889586, NaN, NaN, NaN, 0.0396753, "- N/A -   "
47.53, 1974.41, 0.07934569, NaN, NaN, NaN, 0.0323506, "- N/A -   "
47.79, 1985.619, 0.07978164, NaN, NaN, NaN, 0.0323506, "- N/A -   "
47.987, 1992.89, 0.08007597, NaN, NaN, NaN, 0.04699994, "- N/A -   "