File: 2_Tensile_Data/Hamel_ForceTest_Bolt3_Test3.csv
Time, Load (lb), Position (in), AxialStrain (in), TransverseStrain (in), Auxiliary (), Control Out (V), Stress (psi)
0.0, 1.29742, 0.0, NaN, NaN, NaN, 0.09461027, "- N/A -   "
0.01, 1.65126, 3.054427E-5, NaN, NaN, NaN, 0.0897272, "- N/A -   "
0.02, 1.76921, 5.83118e-05, NaN, NaN, NaN, 0.08362327, "- N/A -   "
0.03, 2.12305, 8.607931E-5, NaN, NaN, NaN, 0.0799609, "- N/A -   "
0.04, 2.35895, 0.000113847, NaN, NaN, NaN, 0.0750778, "- N/A -   "
0.05, 2.712792, 0.000141614, NaN, NaN, NaN, 0.0701947, "- N/A -   "
0.06, 2.83074, 0.000166605, NaN, NaN, NaN, 0.0653116, "- N/A -   "
0.07, 3.06663, 0.000191596, NaN, NaN, NaN, 0.06287005, "- N/A -   "
0.08, 3.30253, 0.000216587, NaN, NaN, NaN, 0.0592077, "- N/A -   "
0.09, 3.53842, 0.000238801, NaN, NaN, NaN, 0.0555454, "- N/A -   "
0.1, 3.774319, 0.000263791, NaN, NaN, NaN, 0.05188305, "- N/A -   "
0.11, 4.010214, 0.000288782, NaN, NaN, NaN, 0.0494415, "- N/A -   "
0.12, 4.12816, 3.109962E-4, NaN, NaN, NaN, 0.04699994, "- N/A -   "
0.13, 4.482, 0.000330433, NaN, NaN, NaN, 0.0445584, "- N/A -   "
0.14, 4.59995, 0.000355424, NaN, NaN, NaN, 0.04211683, "- N/A -   "
0.15, 4.83585, 3.748615E-4, NaN, NaN, NaN, 0.0396753, "- N/A -   "
0.16, 4.953794, 0.000397076, NaN, NaN, NaN, 0.0372337, "- N/A -   "
0.17, 5.18969, 0.000416513, NaN, NaN, NaN, 0.03601294, "- N/A -   "
0.18, 5.307636, 0.00043595, NaN, NaN, NaN, 0.0347922, "- N/A -   "
0.19, 5.54353, 4.553873E-4, NaN, NaN, NaN, 0.0335714, "- N/A -   "
0.2, 5.66148, 4.720478E-4, NaN, NaN, NaN, 0.0335714, "- N/A -   "
0.21, 5.779426, 4.887083E-4, NaN, NaN, NaN, 0.0335714, "- N/A -   "
0.27, 6.84095, 0.000588671, NaN, NaN, NaN, 0.0347922, "- N/A -   "
0.33, 8.020428, 6.747507E-4, NaN, NaN, NaN, 0.0396753, "- N/A -   "
0.39, 8.964007, 0.000763607, NaN, NaN, NaN, 0.0445584, "- N/A -   "
0.45, 10.26143, 8.635698E-4, NaN, NaN, NaN, 0.0445584, "- N/A -   "
0.51, 11.6768, 0.000960756, NaN, NaN, NaN, 0.04577916, "- N/A -   "
0.57, 12.9742, 0.00106627, NaN, NaN, NaN, 0.0433376, "- N/A -   "
0.63, 14.5075, 0.001174566, NaN, NaN, NaN, 0.0396753, "- N/A -   "
0.69, 16.0409, 0.00129397, NaN, NaN, NaN, 0.03112983, "- N/A -   "
0.75, 17.5742, 0.001399483, NaN, NaN, NaN, 0.0299091, "- N/A -   "
0.81, 18.8716, 0.00149389, NaN, NaN, NaN, 0.0323506, "- N/A -   "
0.87, 20.287, 0.0015883, NaN, NaN, NaN, 0.0335714, "- N/A -   "
0.93, 21.7023, 0.00168549, NaN, NaN, NaN, 0.0347922, "- N/A -   "
0.99, 23.1177, 0.001779898, NaN, NaN, NaN, 0.0372337, "- N/A -   "
1.05, 24.4151, 0.00187431, NaN, NaN, NaN, 0.0396753, "- N/A -   "
1.11, 25.8305, 0.00196594, NaN, NaN, NaN, 0.0445584, "- N/A -   "
1.17, 27.2459, 0.00206313, NaN, NaN, NaN, 0.0445584, "- N/A -   "
1.23, 29.0151, 0.0021742, NaN, NaN, NaN, 0.0396753, "- N/A -   "
1.29, 30.9022, 0.00229082, NaN, NaN, NaN, 0.0335714, "- N/A -   "
1.35, 32.5535, 0.00239911, NaN, NaN, NaN, 0.0299091, "- N/A -   "
1.41, 33.9689, 0.002493523, NaN, NaN, NaN, 0.0323506, "- N/A -   "
1.47, 35.3842, 0.00258516, NaN, NaN, NaN, 0.03601294, "- N/A -   "
1.53, 37.0355, 0.00268234, NaN, NaN, NaN, 0.03601294, "- N/A -   "
1.59, 38.9227, 0.00279064, NaN, NaN, NaN, 0.0323506, "- N/A -   "
1.65, 40.456, 0.002887822, NaN, NaN, NaN, 0.0335714, "- N/A -   "
1.71, 41.8714, 0.00297668, NaN, NaN, NaN, 0.0384545, "- N/A -   "
1.77, 43.2867, 0.003065534, NaN, NaN, NaN, 0.0433376, "- N/A -   "
1.83, 45.17388, 0.00317383, NaN, NaN, NaN, 0.0396753, "- N/A -   "
1.89, 46.7072, 0.00327379, NaN, NaN, NaN, 0.04089605, "- N/A -   "
1.95, 48.3585, 0.00337375, NaN, NaN, NaN, 0.0396753, "- N/A -   "
2.01, 50.2456, 0.00348205, NaN, NaN, NaN, 0.03601294, "- N/A -   "
2.07, 51.7789, 0.00358479, NaN, NaN, NaN, 0.03601294, "- N/A -   "
2.13, 53.54815, 0.0036903, NaN, NaN, NaN, 0.0323506, "- N/A -   "
2.19, 55.0815, 0.00379027, NaN, NaN, NaN, 0.0323506, "- N/A -   "
2.25, 56.4968, 0.003884676, NaN, NaN, NaN, 0.0347922, "- N/A -   "
2.31, 58.1481, 0.00398742, NaN, NaN, NaN, 0.0335714, "- N/A -   "
2.37, 59.5635, 0.00409016, NaN, NaN, NaN, 0.0323506, "- N/A -   "
2.43, 60.8609, 0.00417901, NaN, NaN, NaN, 0.0372337, "- N/A -   "
2.49, 62.2763, 0.00427897, NaN, NaN, NaN, 0.0384545, "- N/A -   "
2.55, 63.45574, 0.004373384, NaN, NaN, NaN, 0.0396753, "- N/A -   "
2.61, 64.98906, 0.00447057, NaN, NaN, NaN, 0.04089605, "- N/A -   "
2.67, 66.52237, 0.004576087, NaN, NaN, NaN, 0.0384545, "- N/A -   "
2.73, 68.17364, 0.00468716, NaN, NaN, NaN, 0.0335714, "- N/A -   "
2.79, 69.589, 0.004789897, NaN, NaN, NaN, 0.0323506, "- N/A -   "
2.85, 70.88643, 0.004887083, NaN, NaN, NaN, 0.0335714, "- N/A -   "
2.91, 72.3018, 0.00498982, NaN, NaN, NaN, 0.0323506, "- N/A -   "
2.97, 73.83511, 0.005098117, NaN, NaN, NaN, 0.0286883, "- N/A -   "
3.03, 75.25049, 0.00519253, NaN, NaN, NaN, 0.0323506, "- N/A -   "
3.09, 76.5479, 0.005281382, NaN, NaN, NaN, 0.03601294, "- N/A -   "
3.15, 77.72738, 0.00536746, NaN, NaN, NaN, 0.04211683, "- N/A -   "
3.21, 79.0248, 0.005453541, NaN, NaN, NaN, 0.0482207, "- N/A -   "
3.27, 80.55813, 0.00556183, NaN, NaN, NaN, 0.0445584, "- N/A -   "
3.33, 82.32734, 0.00567568, NaN, NaN, NaN, 0.0384545, "- N/A -   "
3.39, 83.9786, 0.00578675, NaN, NaN, NaN, 0.0335714, "- N/A -   "
3.45, 85.51192, 0.00588949, NaN, NaN, NaN, 0.0323506, "- N/A -   "
3.51, 87.04523, 0.005997784, NaN, NaN, NaN, 0.0299091, "- N/A -   "
3.57, 88.4606, 0.00609497, NaN, NaN, NaN, 0.03112983, "- N/A -   "
3.63, 89.99392, 0.00619771, NaN, NaN, NaN, 0.0299091, "- N/A -   "
3.69, 91.2913, 0.00628934, NaN, NaN, NaN, 0.0335714, "- N/A -   "
3.75, 92.47082, 0.0063782, NaN, NaN, NaN, 0.0384545, "- N/A -   "
3.81, 93.65029, 0.00646428, NaN, NaN, NaN, 0.0445584, "- N/A -   "
3.87, 95.30156, 0.006567018, NaN, NaN, NaN, 0.0433376, "- N/A -   "
3.93, 96.83487, 0.00666698, NaN, NaN, NaN, 0.0433376, "- N/A -   "
3.99, 98.3682, 0.00676972, NaN, NaN, NaN, 0.04211683, "- N/A -   "
4.05, 100.137, 0.006883568, NaN, NaN, NaN, 0.03601294, "- N/A -   "
4.11, 101.907, 0.007000192, NaN, NaN, NaN, 0.0286883, "- N/A -   "
4.17, 103.204, 0.00709738, NaN, NaN, NaN, 0.0299091, "- N/A -   "
4.23, 104.855, 0.007194564, NaN, NaN, NaN, 0.03112983, "- N/A -   "
4.29, 106.153, 0.00729175, NaN, NaN, NaN, 0.0335714, "- N/A -   "
4.35, 107.568, 0.00738616, NaN, NaN, NaN, 0.03601294, "- N/A -   "
4.41, 108.983, 0.007480569, NaN, NaN, NaN, 0.0372337, "- N/A -   "
4.47, 110.399, 0.0075722, NaN, NaN, NaN, 0.04089605, "- N/A -   "
4.53, 111.696, 0.007663835, NaN, NaN, NaN, 0.0445584, "- N/A -   "
4.59, 113.348, 0.007761021, NaN, NaN, NaN, 0.04577916, "- N/A -   "
4.65, 115.117, 0.007869315, NaN, NaN, NaN, 0.04211683, "- N/A -   "
4.71, 116.886, 0.007985938, NaN, NaN, NaN, 0.0347922, "- N/A -   "
4.77, 118.655, 0.008094232, NaN, NaN, NaN, 0.03112983, "- N/A -   "
4.83, 119.953, 0.008188642, NaN, NaN, NaN, 0.0335714, "- N/A -   "
4.89, 121.486, 0.008288605, NaN, NaN, NaN, 0.0347922, "- N/A -   "
4.95, 123.137, 0.008391344, NaN, NaN, NaN, 0.0323506, "- N/A -   "
5.01, 124.67, 0.008494084, NaN, NaN, NaN, 0.03112983, "- N/A -   "
5.07, 126.086, 0.008588494, NaN, NaN, NaN, 0.0347922, "- N/A -   "
5.13, 127.501, 0.008680126, NaN, NaN, NaN, 0.0384545, "- N/A -   "
5.19, 128.917, 0.008768982, NaN, NaN, NaN, 0.04211683, "- N/A -   "
5.25, 130.568, 0.008874499, NaN, NaN, NaN, 0.0396753, "- N/A -   "
5.31, 132.219, 0.008974462, NaN, NaN, NaN, 0.0396753, "- N/A -   "
5.37, 133.87, 0.009079978, NaN, NaN, NaN, 0.0372337, "- N/A -   "
5.43, 135.286, 0.009182718, NaN, NaN, NaN, 0.0372337, "- N/A -   "
5.49, 136.937, 0.009282682, NaN, NaN, NaN, 0.03601294, "- N/A -   "
5.55, 138.588, 0.009385422, NaN, NaN, NaN, 0.0347922, "- N/A -   "
5.61, 140.24, 0.009493715, NaN, NaN, NaN, 0.03112983, "- N/A -   "
5.67, 141.773, 0.009590901, NaN, NaN, NaN, 0.0323506, "- N/A -   "
5.73, 143.306, 0.009693641, NaN, NaN, NaN, 0.0323506, "- N/A -   "
5.79, 144.722, 0.00979083, NaN, NaN, NaN, 0.0335714, "- N/A -   "
5.85, 146.255, 0.00988246, NaN, NaN, NaN, 0.0372337, "- N/A -   "
5.91, 147.67, 0.009974092, NaN, NaN, NaN, 0.0396753, "- N/A -   "
5.97, 149.0856, 0.0100657, NaN, NaN, NaN, 0.0433376, "- N/A -   "
6.03, 150.855, 0.0101657, NaN, NaN, NaN, 0.0445584, "- N/A -   "
6.09, 152.506, 0.010274, NaN, NaN, NaN, 0.0396753, "- N/A -   "
6.15, 154.393, 0.0103878, NaN, NaN, NaN, 0.0347922, "- N/A -   "
6.21, 156.0445, 0.0104906, NaN, NaN, NaN, 0.0323506, "- N/A -   "
6.27, 157.578, 0.0105905, NaN, NaN, NaN, 0.0323506, "- N/A -   "
6.33, 159.347, 0.0106988, NaN, NaN, NaN, 0.0299091, "- N/A -   "
6.39, 160.88, 0.0107988, NaN, NaN, NaN, 0.0299091, "- N/A -   "
6.45, 162.414, 0.0108932, NaN, NaN, NaN, 0.0323506, "- N/A -   "
6.51, 163.829, 0.0109793, NaN, NaN, NaN, 0.0372337, "- N/A -   "
6.57, 165.126, 0.0110626, NaN, NaN, NaN, 0.0445584, "- N/A -   "
6.63, 166.778, 0.011157, NaN, NaN, NaN, 0.04699994, "- N/A -   "
6.69, 168.429, 0.0112653, NaN, NaN, NaN, 0.0445584, "- N/A -   "
6.75, 170.4341, 0.0113819, NaN, NaN, NaN, 0.03601294, "- N/A -   "
6.81, 172.203, 0.0114874, NaN, NaN, NaN, 0.0347922, "- N/A -   "
6.87, 173.855, 0.0115902, NaN, NaN, NaN, 0.0335714, "- N/A -   "
6.93, 175.624, 0.0116957, NaN, NaN, NaN, 0.0299091, "- N/A -   "
6.99, 177.1571, 0.0117984, NaN, NaN, NaN, 0.0299091, "- N/A -   "
7.05, 178.808, 0.0118956, NaN, NaN, NaN, 0.0299091, "- N/A -   "
7.11, 180.224, 0.0119845, NaN, NaN, NaN, 0.0347922, "- N/A -   "
7.17, 181.757, 0.0120733, NaN, NaN, NaN, 0.04089605, "- N/A -   "
7.23, 183.29, 0.0121677, NaN, NaN, NaN, 0.0433376, "- N/A -   "
7.29, 185.06, 0.01226769, NaN, NaN, NaN, 0.04211683, "- N/A -   "
7.35, 186.593, 0.0123677, NaN, NaN, NaN, 0.0433376, "- N/A -   "
7.41, 188.48, 0.01247317, NaN, NaN, NaN, 0.0396753, "- N/A -   "
7.47, 190.367, 0.01258424, NaN, NaN, NaN, 0.03601294, "- N/A -   "
7.53, 192.372, 0.0126981, NaN, NaN, NaN, 0.0299091, "- N/A -   "
7.59, 194.024, 0.012798, NaN, NaN, NaN, 0.0286883, "- N/A -   "
7.65, 195.675, 0.0128952, NaN, NaN, NaN, 0.0299091, "- N/A -   "
7.71, 197.208, 0.0129869, NaN, NaN, NaN, 0.0335714, "- N/A -   "
7.77, 198.741, 0.0130785, NaN, NaN, NaN, 0.0384545, "- N/A -   "
7.83, 200.5107, 0.013184, NaN, NaN, NaN, 0.03601294, "- N/A -   "
7.89, 202.162, 0.01327565, NaN, NaN, NaN, 0.0384545, "- N/A -   "
7.95, 203.577, 0.0133673, NaN, NaN, NaN, 0.0433376, "- N/A -   "
8.01, 205.111, 0.0134617, NaN, NaN, NaN, 0.0445584, "- N/A -   "
8.07, 207.352, 0.0135811, NaN, NaN, NaN, 0.0372337, "- N/A -   "
8.13, 209.239, 0.0136922, NaN, NaN, NaN, 0.0335714, "- N/A -   "
8.19, 211.126, 0.0137977, NaN, NaN, NaN, 0.0299091, "- N/A -   "
8.25, 212.6593, 0.01389209, NaN, NaN, NaN, 0.0323506, "- N/A -   "
8.31, 214.1926, 0.0139809, NaN, NaN, NaN, 0.0372337, "- N/A -   "
8.37, 215.962, 0.0140809, NaN, NaN, NaN, 0.0372337, "- N/A -   "
8.43, 217.849, 0.014192, NaN, NaN, NaN, 0.0335714, "- N/A -   "
8.49, 219.5, 0.0142836, NaN, NaN, NaN, 0.03601294, "- N/A -   "
8.55, 221.034, 0.014378, NaN, NaN, NaN, 0.0384545, "- N/A -   "
8.61, 222.803, 0.0144724, NaN, NaN, NaN, 0.04089605, "- N/A -   "
8.67, 224.454, 0.0145724, NaN, NaN, NaN, 0.04089605, "- N/A -   "
8.73, 226.3412, 0.0146779, NaN, NaN, NaN, 0.0384545, "- N/A -   "
8.79, 228.11, 0.0147779, NaN, NaN, NaN, 0.0384545, "- N/A -   "
8.85, 229.88, 0.0148778, NaN, NaN, NaN, 0.0384545, "- N/A -   "
8.91, 231.767, 0.0149834, NaN, NaN, NaN, 0.03601294, "- N/A -   "
8.97, 233.772, 0.0150916, NaN, NaN, NaN, 0.0323506, "- N/A -   "
8.99, 234.244, 0.0151222, NaN, NaN, NaN, 0.0335714, "- N/A -   "
9, 234.48, 0.0151389, NaN, NaN, NaN, 0.0335714, "- N/A -   "
9.01, 234.833, 0.0151583, NaN, NaN, NaN, 0.0335714, "- N/A -   "
9.13, 238.254, 0.0153527, NaN, NaN, NaN, 0.0347922, "- N/A -   "
9.25, 241.792, 0.0155526, NaN, NaN, NaN, 0.03601294, "- N/A -   "
9.37, 245.092, 0.0157359, NaN, NaN, NaN, 0.04211683, "- N/A -   "
9.49, 248.98, 0.0159413, NaN, NaN, NaN, 0.0396753, "- N/A -   "
9.61, 252.751, 0.0161551, NaN, NaN, NaN, 0.0347922, "- N/A -   "
9.73, 256.403, 0.0163523, NaN, NaN, NaN, 0.0347922, "- N/A -   "
9.85, 260.174, 0.0165605, NaN, NaN, NaN, 0.03112983, "- N/A -   "
9.97, 263.2374, 0.01673826, NaN, NaN, NaN, 0.04089605, "- N/A -   "
10.09, 266.89, 0.0169326, NaN, NaN, NaN, 0.0433376, "- N/A -   "
10.21, 271.014, 0.0171492, NaN, NaN, NaN, 0.03601294, "- N/A -   "
10.33, 275.02, 0.0173603, NaN, NaN, NaN, 0.0323506, "- N/A -   "
10.45, 278.908, 0.0175657, NaN, NaN, NaN, 0.0286883, "- N/A -   "
10.57, 281.8539, 0.0177351, NaN, NaN, NaN, 0.04211683, "- N/A -   "
10.69, 285.7422, 0.017935, NaN, NaN, NaN, 0.04211683, "- N/A -   "
10.81, 289.63, 0.0181405, NaN, NaN, NaN, 0.04089605, "- N/A -   "
10.93, 294.226, 0.018371, NaN, NaN, NaN, 0.0274675, "- N/A -   "
11.05, 297.9961, 0.0185654, NaN, NaN, NaN, 0.0299091, "- N/A -   "
11.17, 301.531, 0.01874863, NaN, NaN, NaN, 0.03601294, "- N/A -   "
11.29, 305.301, 0.0189458, NaN, NaN, NaN, 0.0372337, "- N/A -   "
11.41, 308.8361, 0.0191263, NaN, NaN, NaN, 0.04577916, "- N/A -   "
11.53, 313.4313, 0.0193512, NaN, NaN, NaN, 0.0347922, "- N/A -   "
11.65, 317.4374, 0.0195539, NaN, NaN, NaN, 0.0335714, "- N/A -   "
11.77, 321.443, 0.019751, NaN, NaN, NaN, 0.0347922, "- N/A -   "
11.89, 325.45, 0.0199537, NaN, NaN, NaN, 0.0347922, "- N/A -   "
12.01, 329.102, 0.020137, NaN, NaN, NaN, 0.04089605, "- N/A -   "
12.13, 333.58, 0.0203508, NaN, NaN, NaN, 0.0347922, "- N/A -   "
12.25, 337.468, 0.0205452, NaN, NaN, NaN, 0.0372337, "- N/A -   "
12.37, 341.945, 0.0207673, NaN, NaN, NaN, 0.0286883, "- N/A -   "
12.49, 345.362, 0.0209367, NaN, NaN, NaN, 0.04089605, "- N/A -   "
12.61, 349.84, 0.0211533, NaN, NaN, NaN, 0.0347922, "- N/A -   "
12.73, 353.4922, 0.0213366, NaN, NaN, NaN, 0.04211683, "- N/A -   "
12.85, 357.97, 0.021542, NaN, NaN, NaN, 0.0396753, "- N/A -   "
12.97, 362.5648, 0.0217614, NaN, NaN, NaN, 0.03112983, "- N/A -   "
13.09, 366.571, 0.0219502, NaN, NaN, NaN, 0.03601294, "- N/A -   "
13.21, 371.1661, 0.0221696, NaN, NaN, NaN, 0.0274675, "- N/A -   "
13.33, 374.583, 0.0223417, NaN, NaN, NaN, 0.0396753, "- N/A -   "
13.45, 378.4713, 0.02252501, NaN, NaN, NaN, 0.0482207, "- N/A -   "
13.57, 383.184, 0.0227416, NaN, NaN, NaN, 0.0396753, "- N/A -   "
13.69, 387.8974, 0.0229637, NaN, NaN, NaN, 0.03112983, "- N/A -   "
13.81, 392.3748, 0.023172, NaN, NaN, NaN, 0.0262467, "- N/A -   "
13.93, 396.263, 0.0233553, NaN, NaN, NaN, 0.0335714, "- N/A -   "
14.05, 399.916, 0.0235302, NaN, NaN, NaN, 0.0445584, "- N/A -   "
14.17, 404.5109, 0.0237329, NaN, NaN, NaN, 0.0445584, "- N/A -   "
14.29, 409.2239, 0.02395226, NaN, NaN, NaN, 0.03601294, "- N/A -   "
14.41, 413.7013, 0.0241633, NaN, NaN, NaN, 0.0299091, "- N/A -   "
14.53, 417.943, 0.0243521, NaN, NaN, NaN, 0.0347922, "- N/A -   "
14.65, 422.185, 0.0245465, NaN, NaN, NaN, 0.0372337, "- N/A -   "
14.77, 426.073, 0.0247298, NaN, NaN, NaN, 0.0445584, "- N/A -   "
14.89, 430.904, 0.0249436, NaN, NaN, NaN, 0.0384545, "- N/A -   "
15.01, 435.853, 0.0251657, NaN, NaN, NaN, 0.0286883, "- N/A -   "
15.13, 439.741, 0.025349, NaN, NaN, NaN, 0.03601294, "- N/A -   "
15.25, 444.454, 0.02556, NaN, NaN, NaN, 0.03112983, "- N/A -   "
15.37, 448.46, 0.02574049, NaN, NaN, NaN, 0.0396753, "- N/A -   "
15.49, 452.82, 0.02593764, NaN, NaN, NaN, 0.04089605, "- N/A -   "
15.61, 457.415, 0.0261487, NaN, NaN, NaN, 0.0372337, "- N/A -   "
15.73, 462.01, 0.0263514, NaN, NaN, NaN, 0.03601294, "- N/A -   "
15.85, 466.605, 0.0265541, NaN, NaN, NaN, 0.0335714, "- N/A -   "
15.97, 470.965, 0.026754, NaN, NaN, NaN, 0.0335714, "- N/A -   "
16.09, 475.089, 0.02694, NaN, NaN, NaN, 0.0396753, "- N/A -   "
16.21, 479.448, 0.0271316, NaN, NaN, NaN, 0.0433376, "- N/A -   "
16.33, 484.397, 0.02734545, NaN, NaN, NaN, 0.0372337, "- N/A -   "
16.45, 489.11, 0.02755926, NaN, NaN, NaN, 0.03112983, "- N/A -   "
16.57, 493.705, 0.0277647, NaN, NaN, NaN, 0.0286883, "- N/A -   "
16.69, 498.0648, 0.0279591, NaN, NaN, NaN, 0.03112983, "- N/A -   "
16.81, 501.7174, 0.0281313, NaN, NaN, NaN, 0.0433376, "- N/A -   "
16.93, 506.313, 0.028334, NaN, NaN, NaN, 0.04211683, "- N/A -   "
17.05, 511.497, 0.0285533, NaN, NaN, NaN, 0.0335714, "- N/A -   "
17.17, 516.1022, 0.0287616, NaN, NaN, NaN, 0.03112983, "- N/A -   "
17.29, 520.7151, 0.0289615, NaN, NaN, NaN, 0.03112983, "- N/A -   "
17.41, 524.7367, 0.0291392, NaN, NaN, NaN, 0.04089605, "- N/A -   "
17.53, 529.1131, 0.02933083, NaN, NaN, NaN, 0.0445584, "- N/A -   "
17.65, 533.9626, 0.0295446, NaN, NaN, NaN, 0.0396753, "- N/A -   "
17.77, 539.167, 0.029764, NaN, NaN, NaN, 0.0299091, "- N/A -   "
17.89, 543.7799, 0.0299612, NaN, NaN, NaN, 0.03112983, "- N/A -   "
18.01, 548.038, 0.0301527, NaN, NaN, NaN, 0.0347922, "- N/A -   "
18.13, 552.4144, 0.0303416, NaN, NaN, NaN, 0.0396753, "- N/A -   "
18.25, 556.7908, 0.0305332, NaN, NaN, NaN, 0.0445584, "- N/A -   "
18.37, 562.35, 0.0307553, NaN, NaN, NaN, 0.0335714, "- N/A -   "
18.49, 566.6081, 0.0309525, NaN, NaN, NaN, 0.0347922, "- N/A -   "
18.61, 571.221, 0.0311496, NaN, NaN, NaN, 0.03601294, "- N/A -   "
18.73, 575.834, 0.0313523, NaN, NaN, NaN, 0.0347922, "- N/A -   "
18.85, 580.3287, 0.0315439, NaN, NaN, NaN, 0.0396753, "- N/A -   "
18.97, 585.178, 0.0317466, NaN, NaN, NaN, 0.0384545, "- N/A -   "
19.09, 589.9094, 0.0319521, NaN, NaN, NaN, 0.03601294, "- N/A -   "
19.21, 594.7589, 0.0321576, NaN, NaN, NaN, 0.0323506, "- N/A -   "
19.33, 599.608, 0.0323603, NaN, NaN, NaN, 0.03112983, "- N/A -   "
19.45, 604.103, 0.0325574, NaN, NaN, NaN, 0.0323506, "- N/A -   "
19.57, 608.3612, 0.0327379, NaN, NaN, NaN, 0.04089605, "- N/A -   "
19.69, 612.9742, 0.0329351, NaN, NaN, NaN, 0.0433376, "- N/A -   "
19.81, 618.4151, 0.0331544, NaN, NaN, NaN, 0.0335714, "- N/A -   "
19.93, 623.0281, 0.0333516, NaN, NaN, NaN, 0.03601294, "- N/A -   "
20.05, 628.114, 0.0335626, NaN, NaN, NaN, 0.0299091, "- N/A -   "
20.17, 632.1357, 0.0337431, NaN, NaN, NaN, 0.0384545, "- N/A -   "
20.29, 636.5121, 0.0339264, NaN, NaN, NaN, 0.04577916, "- N/A -   "
20.41, 642.1895, 0.034154, NaN, NaN, NaN, 0.0347922, "- N/A -   "
20.53, 646.8025, 0.03435675, NaN, NaN, NaN, 0.0323506, "- N/A -   "
20.65, 652.007, 0.03457056, NaN, NaN, NaN, 0.0262467, "- N/A -   "
20.77, 656.1467, 0.03475105, NaN, NaN, NaN, 0.0347922, "- N/A -   "
20.89, 660.2865, 0.034926, NaN, NaN, NaN, 0.04577916, "- N/A -   "
21.01, 665.254, 0.0351315, NaN, NaN, NaN, 0.0445584, "- N/A -   "
21.13, 670.8135, 0.03535638, NaN, NaN, NaN, 0.0323506, "- N/A -   "
21.25, 675.7813, 0.0355646, NaN, NaN, NaN, 0.0299091, "- N/A -   "
21.37, 680.1577, 0.0357479, NaN, NaN, NaN, 0.03601294, "- N/A -   "
21.49, 685.007, 0.0359451, NaN, NaN, NaN, 0.0372337, "- N/A -   "
21.61, 689.3836, 0.0361311, NaN, NaN, NaN, 0.0445584, "- N/A -   "
21.73, 694.588, 0.03634213, NaN, NaN, NaN, 0.0396753, "- N/A -   "
21.85, 700.029, 0.036567, NaN, NaN, NaN, 0.0286883, "- N/A -   "
21.97, 704.4053, 0.03675031, NaN, NaN, NaN, 0.03601294, "- N/A -   "
22.09, 709.6096, 0.0369586, NaN, NaN, NaN, 0.0323506, "- N/A -   "
22.21, 713.7495, 0.0371391, NaN, NaN, NaN, 0.04211683, "- N/A -   "
22.33, 718.7173, 0.03734176, NaN, NaN, NaN, 0.0396753, "- N/A -   "
22.45, 723.803, 0.03754724, NaN, NaN, NaN, 0.0372337, "- N/A -   "
22.57, 728.653, 0.0377499, NaN, NaN, NaN, 0.03601294, "- N/A -   "
22.69, 733.5023, 0.0379499, NaN, NaN, NaN, 0.03601294, "- N/A -   "
22.81, 738.352, 0.0381526, NaN, NaN, NaN, 0.0347922, "- N/A -   "
22.93, 742.847, 0.0383386, NaN, NaN, NaN, 0.04089605, "- N/A -   "
23.05, 747.5778, 0.038533, NaN, NaN, NaN, 0.0433376, "- N/A -   "
23.17, 753.137, 0.0387579, NaN, NaN, NaN, 0.0323506, "- N/A -   "
23.29, 757.8682, 0.03895783, NaN, NaN, NaN, 0.0335714, "- N/A -   "
23.41, 763.309, 0.03917164, NaN, NaN, NaN, 0.0262467, "- N/A -   "
23.53, 767.6855, 0.03936046, NaN, NaN, NaN, 0.03112983, "- N/A -   "
23.65, 771.5888, 0.0395271, NaN, NaN, NaN, 0.04699994, "- N/A -   "
23.77, 776.5566, 0.03972699, NaN, NaN, NaN, 0.04699994, "- N/A -   "
23.89, 782.2341, 0.0399547, NaN, NaN, NaN, 0.0335714, "- N/A -   "
24.01, 787.3201, 0.0401657, NaN, NaN, NaN, 0.0286883, "- N/A -   "
24.13, 792.0514, 0.04036009, NaN, NaN, NaN, 0.03112983, "- N/A -   "
24.25, 796.309, 0.0405406, NaN, NaN, NaN, 0.04089605, "- N/A -   "
24.37, 801.0407, 0.0407377, NaN, NaN, NaN, 0.04211683, "- N/A -   "
24.49, 806.1268, 0.04094598, NaN, NaN, NaN, 0.0372337, "- N/A -   "
24.61, 811.686, 0.0411681, NaN, NaN, NaN, 0.0274675, "- N/A -   "
24.73, 816.299, 0.04135972, NaN, NaN, NaN, 0.0323506, "- N/A -   "
24.85, 821.1485, 0.04155687, NaN, NaN, NaN, 0.0323506, "- N/A -   "
24.97, 825.4066, 0.04173458, NaN, NaN, NaN, 0.04211683, "- N/A -   "
25.09, 830.02, 0.0419262, NaN, NaN, NaN, 0.04699994, "- N/A -   "
25.21, 835.8153, 0.04215387, NaN, NaN, NaN, 0.0335714, "- N/A -   "
25.33, 840.5465, 0.0423482, NaN, NaN, NaN, 0.03601294, "- N/A -   "
25.45, 845.5143, 0.0425537, NaN, NaN, NaN, 0.0335714, "- N/A -   "
25.57, 850.364, 0.0427509, NaN, NaN, NaN, 0.0347922, "- N/A -   "
25.69, 854.9768, 0.0429452, NaN, NaN, NaN, 0.0384545, "- N/A -   "
25.81, 860.4177, 0.0431563, NaN, NaN, NaN, 0.0323506, "- N/A -   "
25.93, 864.7941, 0.0433423, NaN, NaN, NaN, 0.0384545, "- N/A -   "
26.05, 869.9985, 0.0435506, NaN, NaN, NaN, 0.0347922, "- N/A -   "
26.17, 875.085, 0.0437588, NaN, NaN, NaN, 0.0323506, "- N/A -   "
26.205, 876.7405, 0.0438255, NaN, NaN, NaN, 0.0286883, "- N/A -   "