File: 2_Tensile_Data/Hamel_ForceTest_Bolt6_Test4.csv
Time, Load (lb), Position (in), AxialStrain (in), TransverseStrain (in), Auxiliary (), Control Out (V), Stress (psi)
0.0, 1.17947, 0.0, NaN, NaN, NaN, 0.09705182, "- N/A -   "
0.01, 1.41537, 3.054427E-5, NaN, NaN, NaN, 0.100714, "- N/A -   "
0.02, 1.88716, 6.386529E-5, NaN, NaN, NaN, 0.09461027, "- N/A -   "
0.03, 2.35895, 9.440956E-5, NaN, NaN, NaN, 0.0872856, "- N/A -   "
0.04, 2.712792, 0.000122177, NaN, NaN, NaN, 0.08362327, "- N/A -   "
0.05, 3.06663, 0.000147168, NaN, NaN, NaN, 0.07874016, "- N/A -   "
0.06, 3.30253, 0.000169382, NaN, NaN, NaN, 0.0762986, "- N/A -   "
0.07, 3.53842, 0.000194373, NaN, NaN, NaN, 0.07263627, "- N/A -   "
0.08, 4.010214, 0.000216587, NaN, NaN, NaN, 0.07141549, "- N/A -   "
0.09, 4.12816, 0.000233247, NaN, NaN, NaN, 0.0701947, "- N/A -   "
0.1, 4.36406, 0.000255461, NaN, NaN, NaN, 0.0689739, "- N/A -   "
0.11, 4.717899, 0.000274898, NaN, NaN, NaN, 0.06653238, "- N/A -   "
0.12, 4.953794, 0.000294336, NaN, NaN, NaN, 0.0653116, "- N/A -   "
0.13, 5.071741, 0.000313773, NaN, NaN, NaN, 0.0640908, "- N/A -   "
0.14, 5.307636, 0.00033321, NaN, NaN, NaN, 0.0640908, "- N/A -   "
0.15, 5.66148, 0.000352647, NaN, NaN, NaN, 0.06287005, "- N/A -   "
0.16, 5.779426, 0.000372085, NaN, NaN, NaN, 0.06164927, "- N/A -   "
0.17, 6.13327, 0.000391522, NaN, NaN, NaN, 0.0604285, "- N/A -   "
0.18, 6.369163, 0.000410959, NaN, NaN, NaN, 0.0579869, "- N/A -   "
0.19, 6.60506, 4.331733E-4, NaN, NaN, NaN, 0.05676616, "- N/A -   "
0.2, 6.9589, 0.000452611, NaN, NaN, NaN, 0.0543246, "- N/A -   "
0.21, 7.07685, 4.720478E-4, NaN, NaN, NaN, 0.0543246, "- N/A -   "
0.22, 7.548638, 0.000491485, NaN, NaN, NaN, 0.05188305, "- N/A -   "
0.23, 7.784533, 5.136991E-4, NaN, NaN, NaN, 0.0494415, "- N/A -   "
0.24, 8.020428, 5.359131E-4, NaN, NaN, NaN, 0.0482207, "- N/A -   "
0.25, 8.256323, 5.525736E-4, NaN, NaN, NaN, 0.04699994, "- N/A -   "
0.26, 8.492218, 5.720109E-4, NaN, NaN, NaN, 0.04577916, "- N/A -   "
0.27, 8.728113, 0.000591448, NaN, NaN, NaN, 0.0445584, "- N/A -   "
0.28, 8.964007, 6.108854E-4, NaN, NaN, NaN, 0.0433376, "- N/A -   "
0.29, 9.199903, 0.000630323, NaN, NaN, NaN, 0.0433376, "- N/A -   "
0.3, 9.435798, 0.000646983, NaN, NaN, NaN, 0.04211683, "- N/A -   "
0.31, 9.671693, 0.00066642, NaN, NaN, NaN, 0.04089605, "- N/A -   "
0.32, 9.907588, 6.858577E-4, NaN, NaN, NaN, 0.04089605, "- N/A -   "
0.33, 10.26143, 0.000705295, NaN, NaN, NaN, 0.0396753, "- N/A -   "
0.34, 10.4973, 0.000724732, NaN, NaN, NaN, 0.0384545, "- N/A -   "
0.35, 10.73322, 7.38616E-4, NaN, NaN, NaN, 0.0384545, "- N/A -   "
0.36, 10.8512, 7.552765E-4, NaN, NaN, NaN, 0.0384545, "- N/A -   "
0.37, 11.0871, 0.000774714, NaN, NaN, NaN, 0.0372337, "- N/A -   "
0.38, 11.4409, 0.000791374, NaN, NaN, NaN, 0.0372337, "- N/A -   "
0.39, 11.6768, 8.108115E-4, NaN, NaN, NaN, 0.03601294, "- N/A -   "
0.4, 11.7947, 8.27472E-4, NaN, NaN, NaN, 0.03601294, "- N/A -   "
0.41, 12.0306, 8.469093E-4, NaN, NaN, NaN, 0.0347922, "- N/A -   "
0.63, 16.86649, 0.00121066, NaN, NaN, NaN, 0.0372337, "- N/A -   "
0.85, 21.93823, 0.00156053, NaN, NaN, NaN, 0.0433376, "- N/A -   "
1.07, 27.95355, 0.00196039, NaN, NaN, NaN, 0.0286883, "- N/A -   "
1.29, 33.61503, 0.002304704, NaN, NaN, NaN, 0.0396753, "- N/A -   "
1.51, 39.6304, 0.00265735, NaN, NaN, NaN, 0.0445584, "- N/A -   "
1.73, 46.8251, 0.00305165, NaN, NaN, NaN, 0.0335714, "- N/A -   "
1.95, 54.0199, 0.0034154, NaN, NaN, NaN, 0.0335714, "- N/A -   "
2.17, 61.2147, 0.003770829, NaN, NaN, NaN, 0.0384545, "- N/A -   "
2.39, 68.9993, 0.00414569, NaN, NaN, NaN, 0.03601294, "- N/A -   "
2.61, 76.6659, 0.004512222, NaN, NaN, NaN, 0.0347922, "- N/A -   "
2.83, 84.21449, 0.004864869, NaN, NaN, NaN, 0.04089605, "- N/A -   "
3.05, 92.58876, 0.00524528, NaN, NaN, NaN, 0.03601294, "- N/A -   "
3.27, 100.845, 0.0056257, NaN, NaN, NaN, 0.0286883, "- N/A -   "
3.49, 107.922, 0.00595891, NaN, NaN, NaN, 0.0433376, "- N/A -   "
3.71, 116.414, 0.006342102, NaN, NaN, NaN, 0.0372337, "- N/A -   "
3.93, 124.788, 0.00672252, NaN, NaN, NaN, 0.03112983, "- N/A -   "
4.15, 131.865, 0.0070585, NaN, NaN, NaN, 0.0445584, "- N/A -   "
4.37, 140.24, 0.00743892, NaN, NaN, NaN, 0.0384545, "- N/A -   "
4.59, 148.142, 0.007819333, NaN, NaN, NaN, 0.0335714, "- N/A -   "
4.81, 155.573, 0.008169204, NaN, NaN, NaN, 0.0396753, "- N/A -   "
5.03, 163.357, 0.008544065, NaN, NaN, NaN, 0.0372337, "- N/A -   "
5.25, 170.67, 0.008910597, NaN, NaN, NaN, 0.03601294, "- N/A -   "
5.47, 177.511, 0.009268798, NaN, NaN, NaN, 0.0396753, "- N/A -   "
5.69, 184.706, 0.009640883, NaN, NaN, NaN, 0.0372337, "- N/A -   "
5.91, 191.665, 0.0100074, NaN, NaN, NaN, 0.0372337, "- N/A -   "
6.13, 198.977, 0.0103878, NaN, NaN, NaN, 0.0323506, "- N/A -   "
6.35, 205.465, 0.0107238, NaN, NaN, NaN, 0.0445584, "- N/A -   "
6.57, 213.013, 0.0111209, NaN, NaN, NaN, 0.0323506, "- N/A -   "
6.79, 219.972, 0.0114874, NaN, NaN, NaN, 0.0323506, "- N/A -   "
7.01, 226.459, 0.0118234, NaN, NaN, NaN, 0.0445584, "- N/A -   "
7.23, 234.362, 0.0122205, NaN, NaN, NaN, 0.03112983, "- N/A -   "
7.45, 241.203, 0.01258424, NaN, NaN, NaN, 0.0335714, "- N/A -   "
7.67, 247.92, 0.01292578, NaN, NaN, NaN, 0.0445584, "- N/A -   "
7.89, 255.814, 0.0133256, NaN, NaN, NaN, 0.0286883, "- N/A -   "
8.11, 262.648, 0.0136755, NaN, NaN, NaN, 0.0372337, "- N/A -   "
8.33, 269.482, 0.0140226, NaN, NaN, NaN, 0.04699994, "- N/A -   "
8.55, 277.377, 0.0144197, NaN, NaN, NaN, 0.0323506, "- N/A -   "
8.77, 284.917, 0.014789, NaN, NaN, NaN, 0.03112983, "- N/A -   "
8.99, 291.8691, 0.0151389, NaN, NaN, NaN, 0.0384545, "- N/A -   "
9.21, 299.41, 0.01550816, NaN, NaN, NaN, 0.0372337, "- N/A -   "
9.43, 306.9509, 0.0158775, NaN, NaN, NaN, 0.03601294, "- N/A -   "
9.65, 314.138, 0.0162301, NaN, NaN, NaN, 0.04211683, "- N/A -   "
9.87, 322.268, 0.01661886, NaN, NaN, NaN, 0.0335714, "- N/A -   "
10.09, 329.927, 0.0169965, NaN, NaN, NaN, 0.0274675, "- N/A -   "
10.31, 336.761, 0.01732971, NaN, NaN, NaN, 0.04211683, "- N/A -   "
10.53, 344.773, 0.0177129, NaN, NaN, NaN, 0.0347922, "- N/A -   "
10.75, 352.903, 0.0180905, NaN, NaN, NaN, 0.0299091, "- N/A -   "
10.97, 359.737, 0.0184265, NaN, NaN, NaN, 0.0433376, "- N/A -   "
11.19, 367.985, 0.01880694, NaN, NaN, NaN, 0.0384545, "- N/A -   "
11.41, 376.1148, 0.0191874, NaN, NaN, NaN, 0.03112983, "- N/A -   "
11.63, 383.538, 0.01953445, NaN, NaN, NaN, 0.0396753, "- N/A -   "
11.85, 391.786, 0.0199093, NaN, NaN, NaN, 0.03601294, "- N/A -   "
12.07, 399.798, 0.02027584, NaN, NaN, NaN, 0.0372337, "- N/A -   "
12.29, 407.81, 0.0206368, NaN, NaN, NaN, 0.0396753, "- N/A -   "
12.51, 415.94, 0.0210061, NaN, NaN, NaN, 0.0372337, "- N/A -   "
12.73, 424.306, 0.0213865, NaN, NaN, NaN, 0.0335714, "- N/A -   "
12.95, 432.5535, 0.0217503, NaN, NaN, NaN, 0.0347922, "- N/A -   "
13.17, 440.2122, 0.0220946, NaN, NaN, NaN, 0.0433376, "- N/A -   "
13.39, 449.167, 0.02248336, NaN, NaN, NaN, 0.0335714, "- N/A -   "
13.61, 457.5326, 0.0228554, NaN, NaN, NaN, 0.03112983, "- N/A -   "
13.83, 464.838, 0.0231803, NaN, NaN, NaN, 0.0494415, "- N/A -   "
14.05, 474.5, 0.02359406, NaN, NaN, NaN, 0.0299091, "- N/A -   "
14.27, 482.63, 0.0239467, NaN, NaN, NaN, 0.0347922, "- N/A -   "
14.49, 490.5239, 0.024291, NaN, NaN, NaN, 0.0445584, "- N/A -   "
14.71, 500.186, 0.02469921, NaN, NaN, NaN, 0.0262467, "- N/A -   "
14.93, 508.5513, 0.0250491, NaN, NaN, NaN, 0.0335714, "- N/A -   "
15.15, 515.9839, 0.02537396, NaN, NaN, NaN, 0.0531038, "- N/A -   "
15.37, 526.156, 0.025796, NaN, NaN, NaN, 0.0286883, "- N/A -   "
15.59, 534.7905, 0.026157, NaN, NaN, NaN, 0.0299091, "- N/A -   "
15.81, 542.8336, 0.02650132, NaN, NaN, NaN, 0.0396753, "- N/A -   "
16.03, 551.823, 0.0268706, NaN, NaN, NaN, 0.0384545, "- N/A -   "
16.25, 560.8123, 0.02724549, NaN, NaN, NaN, 0.0347922, "- N/A -   "
16.47, 569.329, 0.0276009, NaN, NaN, NaN, 0.0396753, "- N/A -   "
16.69, 578.791, 0.0279813, NaN, NaN, NaN, 0.0347922, "- N/A -   "
16.91, 587.8987, 0.0283617, NaN, NaN, NaN, 0.0274675, "- N/A -   "
17.13, 596.06, 0.0286922, NaN, NaN, NaN, 0.0445584, "- N/A -   "
17.35, 605.522, 0.0290781, NaN, NaN, NaN, 0.03601294, "- N/A -   "
17.57, 614.7484, 0.02945856, NaN, NaN, NaN, 0.03112983, "- N/A -   "
17.79, 622.9098, 0.029789, NaN, NaN, NaN, 0.04577916, "- N/A -   "
18.01, 632.254, 0.0301694, NaN, NaN, NaN, 0.0396753, "- N/A -   "
18.23, 641.953, 0.0305554, NaN, NaN, NaN, 0.03112983, "- N/A -   "
18.45, 650.469, 0.0309025, NaN, NaN, NaN, 0.0396753, "- N/A -   "
18.67, 660.1682, 0.0312773, NaN, NaN, NaN, 0.03601294, "- N/A -   "
18.89, 669.1576, 0.03164109, NaN, NaN, NaN, 0.0372337, "- N/A -   "
19.11, 678.2652, 0.0320048, NaN, NaN, NaN, 0.0384545, "- N/A -   "
19.33, 687.609, 0.0323686, NaN, NaN, NaN, 0.0396753, "- N/A -   "
19.55, 697.3084, 0.0327546, NaN, NaN, NaN, 0.03112983, "- N/A -   "
19.77, 706.7709, 0.03311832, NaN, NaN, NaN, 0.0323506, "- N/A -   "
19.99, 715.4054, 0.03345986, NaN, NaN, NaN, 0.0433376, "- N/A -   "
20.21, 725.4592, 0.03384305, NaN, NaN, NaN, 0.03601294, "- N/A -   "
20.43, 734.922, 0.0342151, NaN, NaN, NaN, 0.0335714, "- N/A -   "
20.65, 743.7928, 0.0345567, NaN, NaN, NaN, 0.0445584, "- N/A -   "
20.87, 754.2015, 0.034951, NaN, NaN, NaN, 0.0323506, "- N/A -   "
21.09, 763.664, 0.03531473, NaN, NaN, NaN, 0.0335714, "- N/A -   "
21.31, 772.6533, 0.03565905, NaN, NaN, NaN, 0.0433376, "- N/A -   "
21.53, 783.062, 0.03605335, NaN, NaN, NaN, 0.03112983, "- N/A -   "
21.75, 792.525, 0.03640877, NaN, NaN, NaN, 0.0372337, "- N/A -   "
21.97, 801.6321, 0.0367586, NaN, NaN, NaN, 0.0445584, "- N/A -   "
22.19, 812.1592, 0.0371557, NaN, NaN, NaN, 0.0323506, "- N/A -   "
22.41, 821.858, 0.03752225, NaN, NaN, NaN, 0.0323506, "- N/A -   "
22.63, 830.848, 0.037861, NaN, NaN, NaN, 0.0433376, "- N/A -   "
22.85, 841.2562, 0.0382498, NaN, NaN, NaN, 0.0347922, "- N/A -   "
23.07, 850.8369, 0.03861629, NaN, NaN, NaN, 0.0335714, "- N/A -   "
23.29, 860.063, 0.03896616, NaN, NaN, NaN, 0.04089605, "- N/A -   "
23.51, 870.4716, 0.0393466, NaN, NaN, NaN, 0.03601294, "- N/A -   "
23.73, 880.407, 0.0397242, NaN, NaN, NaN, 0.0299091, "- N/A -   "
23.95, 889.16, 0.0400602, NaN, NaN, NaN, 0.0445584, "- N/A -   "
24.17, 899.4504, 0.04044339, NaN, NaN, NaN, 0.03601294, "- N/A -   "
24.39, 909.386, 0.040821, NaN, NaN, NaN, 0.03112983, "- N/A -   "
24.61, 918.257, 0.041157, NaN, NaN, NaN, 0.0445584, "- N/A -   "
24.83, 928.4292, 0.04153743, NaN, NaN, NaN, 0.0396753, "- N/A -   "
25.05, 938.7196, 0.04192062, NaN, NaN, NaN, 0.03112983, "- N/A -   "
25.27, 947.946, 0.0422705, NaN, NaN, NaN, 0.0384545, "- N/A -   "
25.49, 957.9994, 0.042637, NaN, NaN, NaN, 0.0384545, "- N/A -   "
25.71, 967.6984, 0.04300911, NaN, NaN, NaN, 0.03601294, "- N/A -   "
25.93, 977.516, 0.0433729, NaN, NaN, NaN, 0.0372337, "- N/A -   "
26.15, 987.57, 0.0437422, NaN, NaN, NaN, 0.0372337, "- N/A -   "
26.37, 997.86, 0.0441226, NaN, NaN, NaN, 0.03112983, "- N/A -   "
26.59, 1007.559, 0.0444863, NaN, NaN, NaN, 0.0323506, "- N/A -   "
26.81, 1016.46, 0.0448196, NaN, NaN, NaN, 0.04699994, "- N/A -   "
27.03, 1027.31, 0.0452166, NaN, NaN, NaN, 0.0335714, "- N/A -   "
27.25, 1037.33, 0.0455887, NaN, NaN, NaN, 0.03112983, "- N/A -   "
27.47, 1046.27, 0.04592192, NaN, NaN, NaN, 0.04699994, "- N/A -   "
27.69, 1057.24, 0.046319, NaN, NaN, NaN, 0.0323506, "- N/A -   "
27.91, 1067.02, 0.0466855, NaN, NaN, NaN, 0.0335714, "- N/A -   "
28.13, 1076.32, 0.04702707, NaN, NaN, NaN, 0.0445584, "- N/A -   "
28.35, 1087.294, 0.0474241, NaN, NaN, NaN, 0.0299091, "- N/A -   "
28.57, 1096.71, 0.0477712, NaN, NaN, NaN, 0.0396753, "- N/A -   "
28.79, 1106.02, 0.04811556, NaN, NaN, NaN, 0.0494415, "- N/A -   "
29.01, 1117.35, 0.0485265, NaN, NaN, NaN, 0.0286883, "- N/A -   "
29.23, 1127.12, 0.04888472, NaN, NaN, NaN, 0.0323506, "- N/A -   "
29.45, 1136.545, 0.0492374, NaN, NaN, NaN, 0.0384545, "- N/A -   "
29.67, 1146.68, 0.0496067, NaN, NaN, NaN, 0.0372337, "- N/A -   "
29.89, 1156.94, 0.0499815, NaN, NaN, NaN, 0.0335714, "- N/A -   "
30.11, 1166.358, 0.05033418, NaN, NaN, NaN, 0.0396753, "- N/A -   "
30.33, 1176.73, 0.0507146, NaN, NaN, NaN, 0.0335714, "- N/A -   "
30.55, 1186.75, 0.0510895, NaN, NaN, NaN, 0.0299091, "- N/A -   "
30.77, 1195.81, 0.05142822, NaN, NaN, NaN, 0.0433376, "- N/A -   "
30.99, 1206.069, 0.0518059, NaN, NaN, NaN, 0.0384545, "- N/A -   "
31.21, 1216.44, 0.0521946, NaN, NaN, NaN, 0.0286883, "- N/A -   "
31.43, 1225.03, 0.05252504, NaN, NaN, NaN, 0.0445584, "- N/A -   "
31.65, 1235.52, 0.05290823, NaN, NaN, NaN, 0.0372337, "- N/A -   "
31.87, 1245.66, 0.0532886, NaN, NaN, NaN, 0.03112983, "- N/A -   "
32.09, 1255.08, 0.0536413, NaN, NaN, NaN, 0.0372337, "- N/A -   "
32.31, 1264.98, 0.054005, NaN, NaN, NaN, 0.0396753, "- N/A -   "
32.53, 1274.758, 0.05437713, NaN, NaN, NaN, 0.03601294, "- N/A -   "
32.75, 1284.42, 0.0547381, NaN, NaN, NaN, 0.0384545, "- N/A -   "
32.845, 1288.59, 0.0548936, NaN, NaN, NaN, 0.0396753, "- N/A -   "