File: 2_Tensile_Data/Hamel_ForceTest_Bolt7_Test3.csv
Time, Load (lb), Position (in), AxialStrain (in), TransverseStrain (in), Auxiliary (), Control Out (V), Stress (psi)
0.0, 1.06153, 0.0, NaN, NaN, NaN, 0.106818, "- N/A -   "
0.01, 1.41537, 3.054427E-5, NaN, NaN, NaN, 0.104376, "- N/A -   "
0.02, 1.76921, 6.386529E-5, NaN, NaN, NaN, 0.09705182, "- N/A -   "
0.03, 2.241, 9.440956E-5, NaN, NaN, NaN, 0.09094793, "- N/A -   "
0.04, 2.712792, 0.0001194, NaN, NaN, NaN, 0.0872856, "- N/A -   "
0.05, 3.06663, 0.000147168, NaN, NaN, NaN, 0.08240249, "- N/A -   "
0.06, 3.42048, 0.000172159, NaN, NaN, NaN, 0.07874016, "- N/A -   "
0.07, 3.89227, 0.000199926, NaN, NaN, NaN, 0.07385705, "- N/A -   "
0.08, 4.36406, 0.000224917, NaN, NaN, NaN, 0.0701947, "- N/A -   "
0.09, 4.717899, 0.000249908, NaN, NaN, NaN, 0.06653238, "- N/A -   "
0.1, 5.071741, 0.000274898, NaN, NaN, NaN, 0.06287005, "- N/A -   "
0.11, 5.66148, 2.998892E-4, NaN, NaN, NaN, 0.0592077, "- N/A -   "
0.12, 5.779426, 0.00032488, NaN, NaN, NaN, 0.0555454, "- N/A -   "
0.13, 6.251216, 0.000347094, NaN, NaN, NaN, 0.0531038, "- N/A -   "
0.14, 6.60506, 3.69308E-4, NaN, NaN, NaN, 0.05188305, "- N/A -   "
0.15, 6.9589, 0.000391522, NaN, NaN, NaN, 0.0494415, "- N/A -   "
0.16, 7.312743, 0.000410959, NaN, NaN, NaN, 0.04699994, "- N/A -   "
0.17, 7.784533, 4.331733E-4, NaN, NaN, NaN, 0.0445584, "- N/A -   "
0.18, 8.138375, 0.000452611, NaN, NaN, NaN, 0.0433376, "- N/A -   "
0.19, 8.492218, 4.720478E-4, NaN, NaN, NaN, 0.04211683, "- N/A -   "
0.2, 8.846061, 4.942618E-4, NaN, NaN, NaN, 0.0396753, "- N/A -   "
0.21, 9.199903, 5.164758E-4, NaN, NaN, NaN, 0.0372337, "- N/A -   "
0.22, 9.553744, 0.00053869, NaN, NaN, NaN, 0.0347922, "- N/A -   "
0.23, 9.907588, 5.581271E-4, NaN, NaN, NaN, 0.0335714, "- N/A -   "
0.24, 10.3794, 0.000577564, NaN, NaN, NaN, 0.0323506, "- N/A -   "
0.25, 10.73322, 0.000597002, NaN, NaN, NaN, 0.0323506, "- N/A -   "
0.26, 11.0871, 6.136621E-4, NaN, NaN, NaN, 0.03112983, "- N/A -   "
0.27, 11.323, 6.330994E-4, NaN, NaN, NaN, 0.0299091, "- N/A -   "
0.28, 11.6768, 0.000646983, NaN, NaN, NaN, 0.03112983, "- N/A -   "
0.29, 12.0306, 6.636437E-4, NaN, NaN, NaN, 0.03112983, "- N/A -   "
0.3, 12.2665, 6.830809E-4, NaN, NaN, NaN, 0.0299091, "- N/A -   "
0.31, 12.6204, 6.997415E-4, NaN, NaN, NaN, 0.0299091, "- N/A -   "
0.32, 12.9742, 0.000716402, NaN, NaN, NaN, 0.0299091, "- N/A -   "
0.33, 13.2101, 7.302857E-4, NaN, NaN, NaN, 0.03112983, "- N/A -   "
0.34, 13.564, 0.000746946, NaN, NaN, NaN, 0.03112983, "- N/A -   "
0.35, 13.9178, 0.000763607, NaN, NaN, NaN, 0.03112983, "- N/A -   "
0.36, 14.0357, 0.000780267, NaN, NaN, NaN, 0.03112983, "- N/A -   "
0.37, 14.3896, 0.000794151, NaN, NaN, NaN, 0.0323506, "- N/A -   "
0.38, 14.7434, 8.080348E-4, NaN, NaN, NaN, 0.0335714, "- N/A -   "
0.39, 14.9793, 8.246953E-4, NaN, NaN, NaN, 0.0335714, "- N/A -   "
0.4, 15.3332, 8.38579E-4, NaN, NaN, NaN, 0.0347922, "- N/A -   "
0.41, 15.5691, 8.552396E-4, NaN, NaN, NaN, 0.03601294, "- N/A -   "
0.47, 17.2203, 0.000941319, NaN, NaN, NaN, 0.04211683, "- N/A -   "
0.53, 18.9895, 0.0010274, NaN, NaN, NaN, 0.04699994, "- N/A -   "
0.59, 21.1126, 0.001130138, NaN, NaN, NaN, 0.04577916, "- N/A -   "
0.65, 23.1177, 0.00122732, NaN, NaN, NaN, 0.04699994, "- N/A -   "
0.71, 25.4767, 0.00133284, NaN, NaN, NaN, 0.0445584, "- N/A -   "
0.77, 27.95355, 0.00145224, NaN, NaN, NaN, 0.03601294, "- N/A -   "
0.83, 30.5484, 0.00156609, NaN, NaN, NaN, 0.0299091, "- N/A -   "
0.89, 32.9073, 0.0016716, NaN, NaN, NaN, 0.0274675, "- N/A -   "
0.95, 35.0304, 0.00176324, NaN, NaN, NaN, 0.03112983, "- N/A -   "
1.01, 37.0355, 0.001857647, NaN, NaN, NaN, 0.0335714, "- N/A -   "
1.07, 39.2765, 0.00195206, NaN, NaN, NaN, 0.03601294, "- N/A -   "
1.13, 41.6355, 0.00205202, NaN, NaN, NaN, 0.03601294, "- N/A -   "
1.19, 43.75851, 0.00214088, NaN, NaN, NaN, 0.04211683, "- N/A -   "
1.25, 45.9995, 0.00223251, NaN, NaN, NaN, 0.0445584, "- N/A -   "
1.31, 48.2405, 0.00233247, NaN, NaN, NaN, 0.0445584, "- N/A -   "
1.37, 50.9533, 0.0024491, NaN, NaN, NaN, 0.0384545, "- N/A -   "
1.43, 53.6661, 0.00255739, NaN, NaN, NaN, 0.0335714, "- N/A -   "
1.49, 56.143, 0.0026629, NaN, NaN, NaN, 0.03112983, "- N/A -   "
1.55, 58.384, 0.00275731, NaN, NaN, NaN, 0.0335714, "- N/A -   "
1.61, 60.8609, 0.002854501, NaN, NaN, NaN, 0.0347922, "- N/A -   "
1.67, 63.1019, 0.002954464, NaN, NaN, NaN, 0.0347922, "- N/A -   "
1.73, 65.5788, 0.003057204, NaN, NaN, NaN, 0.0335714, "- N/A -   "
1.79, 67.70185, 0.00314884, NaN, NaN, NaN, 0.0372337, "- N/A -   "
1.85, 69.94285, 0.00324047, NaN, NaN, NaN, 0.04089605, "- N/A -   "
1.91, 72.41975, 0.00333488, NaN, NaN, NaN, 0.0433376, "- N/A -   "
1.97, 75.0146, 0.00344317, NaN, NaN, NaN, 0.0396753, "- N/A -   "
2.03, 77.6094, 0.00354036, NaN, NaN, NaN, 0.04089605, "- N/A -   "
2.09, 80.32223, 0.00364865, NaN, NaN, NaN, 0.0372337, "- N/A -   "
2.15, 82.91707, 0.00375139, NaN, NaN, NaN, 0.03601294, "- N/A -   "
2.21, 85.51192, 0.00385135, NaN, NaN, NaN, 0.03601294, "- N/A -   "
2.27, 88.34265, 0.00395687, NaN, NaN, NaN, 0.0335714, "- N/A -   "
2.33, 90.81956, 0.00405683, NaN, NaN, NaN, 0.0335714, "- N/A -   "
2.39, 93.41439, 0.00415957, NaN, NaN, NaN, 0.0323506, "- N/A -   "
2.45, 96.00924, 0.00426231, NaN, NaN, NaN, 0.03112983, "- N/A -   "
2.51, 98.60408, 0.004365054, NaN, NaN, NaN, 0.0299091, "- N/A -   "
2.57, 100.6092, 0.004442803, NaN, NaN, NaN, 0.0396753, "- N/A -   "
2.63, 103.204, 0.00453721, NaN, NaN, NaN, 0.04211683, "- N/A -   "
2.69, 105.681, 0.004634399, NaN, NaN, NaN, 0.0445584, "- N/A -   "
2.75, 108.512, 0.00473714, NaN, NaN, NaN, 0.04211683, "- N/A -   "
2.81, 111.46, 0.004845432, NaN, NaN, NaN, 0.0384545, "- N/A -   "
2.87, 114.2911, 0.004956502, NaN, NaN, NaN, 0.0335714, "- N/A -   "
2.93, 117.122, 0.00505924, NaN, NaN, NaN, 0.0323506, "- N/A -   "
2.99, 119.599, 0.005156428, NaN, NaN, NaN, 0.0335714, "- N/A -   "
3.05, 122.429, 0.0052675, NaN, NaN, NaN, 0.0299091, "- N/A -   "
3.11, 125.26, 0.00536746, NaN, NaN, NaN, 0.0286883, "- N/A -   "
3.17, 127.619, 0.005459094, NaN, NaN, NaN, 0.0323506, "- N/A -   "
3.23, 129.742, 0.00554517, NaN, NaN, NaN, 0.0384545, "- N/A -   "
3.29, 132.101, 0.00563125, NaN, NaN, NaN, 0.0445584, "- N/A -   "
3.35, 134.578, 0.005728439, NaN, NaN, NaN, 0.04699994, "- N/A -   "
3.41, 137.6447, 0.005836732, NaN, NaN, NaN, 0.04211683, "- N/A -   "
3.47, 140.475, 0.00594225, NaN, NaN, NaN, 0.0396753, "- N/A -   "
3.53, 143.542, 0.00605332, NaN, NaN, NaN, 0.03601294, "- N/A -   "
3.59, 146.137, 0.00615328, NaN, NaN, NaN, 0.03601294, "- N/A -   "
3.65, 148.968, 0.0062588, NaN, NaN, NaN, 0.0335714, "- N/A -   "
3.71, 151.916, 0.006367092, NaN, NaN, NaN, 0.0299091, "- N/A -   "
3.77, 154.511, 0.006467055, NaN, NaN, NaN, 0.0299091, "- N/A -   "
3.83, 156.87, 0.00655313, NaN, NaN, NaN, 0.03601294, "- N/A -   "
3.89, 159.111, 0.00664199, NaN, NaN, NaN, 0.04089605, "- N/A -   "
3.95, 161.588, 0.00673362, NaN, NaN, NaN, 0.0445584, "- N/A -   "
4.01, 164.183, 0.00683081, NaN, NaN, NaN, 0.04577916, "- N/A -   "
4.07, 166.896, 0.00693355, NaN, NaN, NaN, 0.0445584, "- N/A -   "
4.13, 169.726, 0.00703907, NaN, NaN, NaN, 0.04211683, "- N/A -   "
4.19, 172.6751, 0.007150136, NaN, NaN, NaN, 0.0372337, "- N/A -   "
4.25, 175.86, 0.00726398, NaN, NaN, NaN, 0.03112983, "- N/A -   "
4.31, 178.455, 0.007366723, NaN, NaN, NaN, 0.0299091, "- N/A -   "
4.37, 181.049, 0.00746391, NaN, NaN, NaN, 0.03112983, "- N/A -   "
4.43, 183.408, 0.007555542, NaN, NaN, NaN, 0.0347922, "- N/A -   "
4.49, 185.885, 0.007652728, NaN, NaN, NaN, 0.03601294, "- N/A -   "
4.55, 188.48, 0.007752691, NaN, NaN, NaN, 0.0372337, "- N/A -   "
4.61, 190.721, 0.007841547, NaN, NaN, NaN, 0.04089605, "- N/A -   "
4.67, 193.08, 0.00793318, NaN, NaN, NaN, 0.0445584, "- N/A -   "
4.73, 195.911, 0.00803592, NaN, NaN, NaN, 0.0433376, "- N/A -   "
4.79, 198.741, 0.00814699, NaN, NaN, NaN, 0.0384545, "- N/A -   "
4.85, 201.69, 0.008258061, NaN, NaN, NaN, 0.0335714, "- N/A -   "
4.91, 204.521, 0.008366354, NaN, NaN, NaN, 0.0299091, "- N/A -   "
4.97, 206.88, 0.008457987, NaN, NaN, NaN, 0.0335714, "- N/A -   "
5.03, 209.121, 0.008549619, NaN, NaN, NaN, 0.0384545, "- N/A -   "
5.09, 211.9516, 0.008652358, NaN, NaN, NaN, 0.03601294, "- N/A -   "
5.15, 214.6644, 0.008760652, NaN, NaN, NaN, 0.0323506, "- N/A -   "
5.21, 217.023, 0.008855062, NaN, NaN, NaN, 0.0347922, "- N/A -   "
5.27, 219.264, 0.008943918, NaN, NaN, NaN, 0.0396753, "- N/A -   "
5.33, 221.859, 0.009041104, NaN, NaN, NaN, 0.04089605, "- N/A -   "
5.39, 224.218, 0.009141067, NaN, NaN, NaN, 0.04089605, "- N/A -   "
5.45, 227.049, 0.009246584, NaN, NaN, NaN, 0.0384545, "- N/A -   "
5.51, 229.762, 0.009354877, NaN, NaN, NaN, 0.03601294, "- N/A -   "
5.57, 232.239, 0.009452064, NaN, NaN, NaN, 0.03601294, "- N/A -   "
5.63, 234.715, 0.009549249, NaN, NaN, NaN, 0.0372337, "- N/A -   "
5.69, 237.5462, 0.00966032, NaN, NaN, NaN, 0.0323506, "- N/A -   "
5.75, 240.141, 0.009765836, NaN, NaN, NaN, 0.03112983, "- N/A -   "
5.81, 242.5, 0.00985747, NaN, NaN, NaN, 0.0335714, "- N/A -   "
5.87, 244.857, 0.009957432, NaN, NaN, NaN, 0.0335714, "- N/A -   "
5.93, 247.4487, 0.0100574, NaN, NaN, NaN, 0.0335714, "- N/A -   "
5.99, 249.57, 0.0101463, NaN, NaN, NaN, 0.0384545, "- N/A -   "
6.05, 251.69, 0.0102407, NaN, NaN, NaN, 0.04089605, "- N/A -   "
6.11, 254.047, 0.0103323, NaN, NaN, NaN, 0.0445584, "- N/A -   "
6.17, 256.639, 0.010435, NaN, NaN, NaN, 0.0433376, "- N/A -   "
6.23, 259.585, 0.0105461, NaN, NaN, NaN, 0.0384545, "- N/A -   "
6.29, 262.295, 0.0106572, NaN, NaN, NaN, 0.0347922, "- N/A -   "
6.35, 264.769, 0.0107571, NaN, NaN, NaN, 0.0335714, "- N/A -   "
6.41, 267.0078, 0.0108543, NaN, NaN, NaN, 0.0347922, "- N/A -   "
6.47, 269.836, 0.0109626, NaN, NaN, NaN, 0.0323506, "- N/A -   "
6.53, 272.31, 0.0110681, NaN, NaN, NaN, 0.0299091, "- N/A -   "
6.59, 274.549, 0.0111625, NaN, NaN, NaN, 0.0323506, "- N/A -   "
6.65, 276.67, 0.0112431, NaN, NaN, NaN, 0.0396753, "- N/A -   "
6.71, 278.908, 0.0113375, NaN, NaN, NaN, 0.0433376, "- N/A -   "
6.77, 281.0291, 0.0114263, NaN, NaN, NaN, 0.04699994, "- N/A -   "
6.83, 284.093, 0.0115402, NaN, NaN, NaN, 0.04089605, "- N/A -   "
6.89, 286.9204, 0.0116568, NaN, NaN, NaN, 0.0335714, "- N/A -   "
6.95, 289.159, 0.011754, NaN, NaN, NaN, 0.0347922, "- N/A -   "
7.01, 291.516, 0.0118512, NaN, NaN, NaN, 0.03601294, "- N/A -   "
7.07, 294.343, 0.011965, NaN, NaN, NaN, 0.0299091, "- N/A -   "
7.13, 297.0535, 0.0120705, NaN, NaN, NaN, 0.0274675, "- N/A -   "
7.19, 299.174, 0.0121649, NaN, NaN, NaN, 0.03112983, "- N/A -   "
7.25, 301.1774, 0.01225103, NaN, NaN, NaN, 0.03601294, "- N/A -   "
7.31, 303.298, 0.0123427, NaN, NaN, NaN, 0.0396753, "- N/A -   "
7.37, 305.7726, 0.0124371, NaN, NaN, NaN, 0.04211683, "- N/A -   "
7.43, 308.129, 0.0125343, NaN, NaN, NaN, 0.0433376, "- N/A -   "
7.49, 310.486, 0.012637, NaN, NaN, NaN, 0.0433376, "- N/A -   "
7.55, 313.313, 0.0127453, NaN, NaN, NaN, 0.0384545, "- N/A -   "
7.61, 316.259, 0.0128647, NaN, NaN, NaN, 0.0299091, "- N/A -   "
7.67, 318.616, 0.0129674, NaN, NaN, NaN, 0.0286883, "- N/A -   "
7.73, 320.854, 0.0130646, NaN, NaN, NaN, 0.0299091, "- N/A -   "
7.79, 322.9752, 0.01315625, NaN, NaN, NaN, 0.0335714, "- N/A -   "
7.85, 325.332, 0.01325066, NaN, NaN, NaN, 0.0372337, "- N/A -   "
7.91, 327.8061, 0.0133534, NaN, NaN, NaN, 0.0347922, "- N/A -   "
7.97, 330.1626, 0.0134534, NaN, NaN, NaN, 0.03601294, "- N/A -   "
7.99, 330.87, 0.0134811, NaN, NaN, NaN, 0.0372337, "- N/A -   "
8, 331.105, 0.013495, NaN, NaN, NaN, 0.0384545, "- N/A -   "
8.01, 331.4587, 0.0135089, NaN, NaN, NaN, 0.0396753, "- N/A -   "
8.16, 336.8787, 0.0137421, NaN, NaN, NaN, 0.0482207, "- N/A -   "
8.31, 343.5948, 0.0140309, NaN, NaN, NaN, 0.0323506, "- N/A -   "
8.46, 349.1326, 0.0142697, NaN, NaN, NaN, 0.03601294, "- N/A -   "
8.61, 355.0239, 0.0145224, NaN, NaN, NaN, 0.0347922, "- N/A -   "
8.76, 360.562, 0.0147612, NaN, NaN, NaN, 0.04089605, "- N/A -   "
8.91, 366.924, 0.0150195, NaN, NaN, NaN, 0.03601294, "- N/A -   "
9.06, 372.6978, 0.0152721, NaN, NaN, NaN, 0.0347922, "- N/A -   "
9.21, 378.4713, 0.0155193, NaN, NaN, NaN, 0.03601294, "- N/A -   "
9.36, 384.127, 0.0157664, NaN, NaN, NaN, 0.0372337, "- N/A -   "
9.51, 389.783, 0.0159996, NaN, NaN, NaN, 0.0445584, "- N/A -   "
9.66, 396.499, 0.0162801, NaN, NaN, NaN, 0.0323506, "- N/A -   "
9.81, 402.154, 0.01652445, NaN, NaN, NaN, 0.0335714, "- N/A -   "
9.96, 408.2813, 0.0167855, NaN, NaN, NaN, 0.0286883, "- N/A -   "
10.11, 413.23, 0.0169993, NaN, NaN, NaN, 0.0445584, "- N/A -   "
10.26, 419.475, 0.0172575, NaN, NaN, NaN, 0.04211683, "- N/A -   "
10.41, 425.8374, 0.01752408, NaN, NaN, NaN, 0.0335714, "- N/A -   "
10.56, 431.964, 0.0177795, NaN, NaN, NaN, 0.03112983, "- N/A -   "
10.71, 437.267, 0.0180072, NaN, NaN, NaN, 0.04089605, "- N/A -   "
10.86, 443.1578, 0.0182544, NaN, NaN, NaN, 0.04211683, "- N/A -   "
11.01, 449.992, 0.0185265, NaN, NaN, NaN, 0.0323506, "- N/A -   "
11.16, 455.883, 0.0187792, NaN, NaN, NaN, 0.03112983, "- N/A -   "
11.31, 461.892, 0.0190235, NaN, NaN, NaN, 0.0335714, "- N/A -   "
11.46, 467.3122, 0.019254, NaN, NaN, NaN, 0.04211683, "- N/A -   "
11.61, 473.7926, 0.0195122, NaN, NaN, NaN, 0.0384545, "- N/A -   "
11.76, 480.037, 0.019776, NaN, NaN, NaN, 0.0323506, "- N/A -   "
11.91, 486.164, 0.02002038, NaN, NaN, NaN, 0.0347922, "- N/A -   "
12.06, 492.291, 0.0202647, NaN, NaN, NaN, 0.0372337, "- N/A -   "
12.21, 498.3, 0.0205091, NaN, NaN, NaN, 0.0396753, "- N/A -   "
12.36, 504.5452, 0.0207646, NaN, NaN, NaN, 0.0384545, "- N/A -   "
12.51, 511.143, 0.02103112, NaN, NaN, NaN, 0.03112983, "- N/A -   "
12.66, 517.403, 0.0212783, NaN, NaN, NaN, 0.0323506, "- N/A -   "
12.81, 523.199, 0.0215115, NaN, NaN, NaN, 0.0396753, "- N/A -   "
12.96, 529.2313, 0.0217503, NaN, NaN, NaN, 0.0445584, "- N/A -   "
13.11, 536.2099, 0.0220252, NaN, NaN, NaN, 0.0347922, "- N/A -   "
13.26, 542.5971, 0.02227788, NaN, NaN, NaN, 0.0323506, "- N/A -   "
13.41, 548.984, 0.0225278, NaN, NaN, NaN, 0.0323506, "- N/A -   "
13.56, 554.543, 0.0227527, NaN, NaN, NaN, 0.0433376, "- N/A -   "
13.71, 560.9306, 0.0230026, NaN, NaN, NaN, 0.0433376, "- N/A -   "
13.86, 567.7909, 0.023272, NaN, NaN, NaN, 0.0347922, "- N/A -   "
14.01, 574.6512, 0.0235413, NaN, NaN, NaN, 0.0262467, "- N/A -   "
14.16, 579.9738, 0.02375789, NaN, NaN, NaN, 0.04089605, "- N/A -   "
14.31, 586.243, 0.0239995, NaN, NaN, NaN, 0.0445584, "- N/A -   "
14.46, 593.5762, 0.0242799, NaN, NaN, NaN, 0.03112983, "- N/A -   "
14.61, 599.845, 0.024527, NaN, NaN, NaN, 0.0323506, "- N/A -   "
14.76, 605.9956, 0.0247603, NaN, NaN, NaN, 0.0396753, "- N/A -   "
14.91, 612.028, 0.0249991, NaN, NaN, NaN, 0.04577916, "- N/A -   "
15.06, 619.4797, 0.0252795, NaN, NaN, NaN, 0.0323506, "- N/A -   "
15.21, 625.63, 0.0255211, NaN, NaN, NaN, 0.0347922, "- N/A -   "
15.36, 632.372, 0.0257794, NaN, NaN, NaN, 0.03112983, "- N/A -   "
15.51, 638.2863, 0.0260098, NaN, NaN, NaN, 0.0396753, "- N/A -   "
15.66, 644.7917, 0.02626252, NaN, NaN, NaN, 0.0384545, "- N/A -   "
15.81, 651.534, 0.0265152, NaN, NaN, NaN, 0.0372337, "- N/A -   "
15.96, 658.0392, 0.0267679, NaN, NaN, NaN, 0.03601294, "- N/A -   "
16.11, 664.7812, 0.0270233, NaN, NaN, NaN, 0.0335714, "- N/A -   "
16.26, 670.932, 0.0272594, NaN, NaN, NaN, 0.0396753, "- N/A -   "
16.41, 677.437, 0.0275093, NaN, NaN, NaN, 0.04089605, "- N/A -   "
16.56, 684.1792, 0.0277731, NaN, NaN, NaN, 0.0347922, "- N/A -   "
16.71, 691.04, 0.0280341, NaN, NaN, NaN, 0.0286883, "- N/A -   "
16.86, 696.954, 0.0282673, NaN, NaN, NaN, 0.03601294, "- N/A -   "
17.01, 702.8677, 0.028495, NaN, NaN, NaN, 0.04577916, "- N/A -   "
17.16, 710.201, 0.0287699, NaN, NaN, NaN, 0.03601294, "- N/A -   "
17.31, 717.1796, 0.0290365, NaN, NaN, NaN, 0.0286883, "- N/A -   "
17.46, 723.3302, 0.0292725, NaN, NaN, NaN, 0.0347922, "- N/A -   "
17.61, 729.126, 0.0294974, NaN, NaN, NaN, 0.04699994, "- N/A -   "
17.76, 735.868, 0.0297557, NaN, NaN, NaN, 0.04211683, "- N/A -   "
17.91, 743.32, 0.0300333, NaN, NaN, NaN, 0.0299091, "- N/A -   "
18.06, 749.707, 0.0302777, NaN, NaN, NaN, 0.0323506, "- N/A -   "
18.21, 756.094, 0.03051928, NaN, NaN, NaN, 0.03601294, "- N/A -   "
18.36, 762.1263, 0.0307498, NaN, NaN, NaN, 0.04577916, "- N/A -   "
18.51, 769.933, 0.0310302, NaN, NaN, NaN, 0.03112983, "- N/A -   "
18.66, 775.9652, 0.031269, NaN, NaN, NaN, 0.0372337, "- N/A -   "
18.81, 782.825, 0.03152724, NaN, NaN, NaN, 0.0335714, "- N/A -   "
18.96, 788.858, 0.0317549, NaN, NaN, NaN, 0.04211683, "- N/A -   "
19.11, 795.7181, 0.0320132, NaN, NaN, NaN, 0.0384545, "- N/A -   "
19.26, 802.4601, 0.03227141, NaN, NaN, NaN, 0.0347922, "- N/A -   "
19.41, 809.3204, 0.0325269, NaN, NaN, NaN, 0.0323506, "- N/A -   "
19.56, 816.181, 0.0327796, NaN, NaN, NaN, 0.03112983, "- N/A -   "
19.71, 821.976, 0.0330045, NaN, NaN, NaN, 0.04211683, "- N/A -   "
19.86, 828.837, 0.03326271, NaN, NaN, NaN, 0.0384545, "- N/A -   "
20.01, 835.697, 0.03352095, NaN, NaN, NaN, 0.0347922, "- N/A -   "
20.16, 842.7938, 0.033782, NaN, NaN, NaN, 0.03112983, "- N/A -   "
20.31, 848.4713, 0.0340041, NaN, NaN, NaN, 0.0433376, "- N/A -   "
20.46, 854.9768, 0.0342512, NaN, NaN, NaN, 0.0433376, "- N/A -   "
20.61, 862.547, 0.0345317, NaN, NaN, NaN, 0.0299091, "- N/A -   "
20.76, 869.6437, 0.0347927, NaN, NaN, NaN, 0.0262467, "- N/A -   "
20.91, 875.4394, 0.03501484, NaN, NaN, NaN, 0.0372337, "- N/A -   "
21.06, 881.59, 0.03524809, NaN, NaN, NaN, 0.0445584, "- N/A -   "
21.21, 888.6868, 0.03551188, NaN, NaN, NaN, 0.0384545, "- N/A -   "
21.36, 896.02, 0.035784, NaN, NaN, NaN, 0.0286883, "- N/A -   "
21.51, 902.4074, 0.03602, NaN, NaN, NaN, 0.0347922, "- N/A -   "
21.66, 908.558, 0.0362588, NaN, NaN, NaN, 0.04211683, "- N/A -   "
21.81, 915.182, 0.03650318, NaN, NaN, NaN, 0.0433376, "- N/A -   "
21.96, 922.7517, 0.03678641, NaN, NaN, NaN, 0.0286883, "- N/A -   "
22.11, 929.021, 0.0370197, NaN, NaN, NaN, 0.03601294, "- N/A -   "
22.26, 935.644, 0.0372696, NaN, NaN, NaN, 0.03601294, "- N/A -   "
22.41, 941.7949, 0.03750559, NaN, NaN, NaN, 0.0433376, "- N/A -   "
22.56, 948.8918, 0.0377638, NaN, NaN, NaN, 0.0384545, "- N/A -   "
22.71, 955.634, 0.03801929, NaN, NaN, NaN, 0.03601294, "- N/A -   "
22.86, 962.3758, 0.0382747, NaN, NaN, NaN, 0.0335714, "- N/A -   "
23.01, 968.8813, 0.0385191, NaN, NaN, NaN, 0.03601294, "- N/A -   "
23.16, 974.9136, 0.03874957, NaN, NaN, NaN, 0.0445584, "- N/A -   "
23.31, 982.3653, 0.0390272, NaN, NaN, NaN, 0.0335714, "- N/A -   "
23.46, 988.871, 0.0392744, NaN, NaN, NaN, 0.0335714, "- N/A -   "
23.61, 995.731, 0.0395354, NaN, NaN, NaN, 0.0286883, "- N/A -   "
23.76, 1001.05, 0.0397436, NaN, NaN, NaN, 0.04699994, "- N/A -   "
23.91, 1008.15, 0.0400074, NaN, NaN, NaN, 0.04089605, "- N/A -   "
24.06, 1015.15, 0.0402712, NaN, NaN, NaN, 0.0347922, "- N/A -   "
24.21, 1022.18, 0.0405322, NaN, NaN, NaN, 0.0299091, "- N/A -   "
24.36, 1027.91, 0.04075716, NaN, NaN, NaN, 0.04211683, "- N/A -   "
24.51, 1034.47, 0.0410043, NaN, NaN, NaN, 0.04211683, "- N/A -   "
24.66, 1041.859, 0.0412792, NaN, NaN, NaN, 0.0323506, "- N/A -   "
24.81, 1048.78, 0.0415347, NaN, NaN, NaN, 0.0286883, "- N/A -   "
24.96, 1054.86, 0.0417679, NaN, NaN, NaN, 0.0372337, "- N/A -   "
25.11, 1061.18, 0.0420011, NaN, NaN, NaN, 0.0433376, "- N/A -   "
25.26, 1068.21, 0.0422622, NaN, NaN, NaN, 0.0384545, "- N/A -   "
25.41, 1075.13, 0.0425232, NaN, NaN, NaN, 0.0335714, "- N/A -   "
25.56, 1081.69, 0.0427703, NaN, NaN, NaN, 0.0347922, "- N/A -   "
25.71, 1088.13, 0.04301466, NaN, NaN, NaN, 0.0372337, "- N/A -   "
25.86, 1094.69, 0.04326179, NaN, NaN, NaN, 0.0396753, "- N/A -   "
26.01, 1101.485, 0.0435173, NaN, NaN, NaN, 0.03601294, "- N/A -   "
26.16, 1108.64, 0.043781, NaN, NaN, NaN, 0.03112983, "- N/A -   "
26.31, 1114.96, 0.0440226, NaN, NaN, NaN, 0.0347922, "- N/A -   "
26.46, 1121.4, 0.0442586, NaN, NaN, NaN, 0.04089605, "- N/A -   "
26.61, 1127.72, 0.0445002, NaN, NaN, NaN, 0.0445584, "- N/A -   "
26.76, 1134.99, 0.04477234, NaN, NaN, NaN, 0.0347922, "- N/A -   "
26.91, 1141.91, 0.0450278, NaN, NaN, NaN, 0.0323506, "- N/A -   "
27.06, 1148.47, 0.0452749, NaN, NaN, NaN, 0.0335714, "- N/A -   "
27.21, 1153.96, 0.0454887, NaN, NaN, NaN, 0.0494415, "- N/A -   "
27.36, 1161.35, 0.04575809, NaN, NaN, NaN, 0.04089605, "- N/A -   "
27.51, 1169.1, 0.0460469, NaN, NaN, NaN, 0.0238052, "- N/A -   "
27.66, 1175.06, 0.0462773, NaN, NaN, NaN, 0.0323506, "- N/A -   "
27.81, 1181.03, 0.0465023, NaN, NaN, NaN, 0.0433376, "- N/A -   "
27.96, 1187.47, 0.0467466, NaN, NaN, NaN, 0.04577916, "- N/A -   "
28.11, 1195.34, 0.04703262, NaN, NaN, NaN, 0.0299091, "- N/A -   "
28.26, 1201.66, 0.0472742, NaN, NaN, NaN, 0.0335714, "- N/A -   "
28.41, 1208.22, 0.0475158, NaN, NaN, NaN, 0.0372337, "- N/A -   "
28.56, 1214.3, 0.047749, NaN, NaN, NaN, 0.0445584, "- N/A -   "
28.71, 1221.81, 0.04802392, NaN, NaN, NaN, 0.0335714, "- N/A -   "
28.86, 1228.49, 0.0482766, NaN, NaN, NaN, 0.0323506, "- N/A -   "
29.01, 1235.29, 0.0485265, NaN, NaN, NaN, 0.0323506, "- N/A -   "
29.16, 1241.37, 0.048757, NaN, NaN, NaN, 0.04089605, "- N/A -   "
29.31, 1247.93, 0.0490041, NaN, NaN, NaN, 0.04211683, "- N/A -   "
29.46, 1255.08, 0.0492679, NaN, NaN, NaN, 0.03601294, "- N/A -   "
29.61, 1261.88, 0.0495261, NaN, NaN, NaN, 0.0335714, "- N/A -   "
29.76, 1268.44, 0.0497733, NaN, NaN, NaN, 0.0347922, "- N/A -   "
29.91, 1274.758, 0.0500121, NaN, NaN, NaN, 0.0384545, "- N/A -   "
30.06, 1281.2, 0.0502537, NaN, NaN, NaN, 0.04211683, "- N/A -   "
30.21, 1288.35, 0.050523, NaN, NaN, NaN, 0.0335714, "- N/A -   "
30.36, 1295.51, 0.05078957, NaN, NaN, NaN, 0.0262467, "- N/A -   "
30.42, 1297.89, 0.05088398, NaN, NaN, NaN, 0.0299091, "- N/A -   "