File: 2_Tensile_Data/Hamel_ForceTest_Bolt10_Test1.csv
Time, Load (lb), Position (in), AxialStrain (in), TransverseStrain (in), Auxiliary (), Control Out (V), Stress (psi)
0.0,1.06153,0.0, NaN, NaN, NaN,0.08606482," ""- N/A -   """
0.01,1.41537,2.77675e-05, NaN, NaN, NaN,0.09338949," ""- N/A -   """
0.06,3.53842,0.0001610516, NaN, NaN, NaN,0.0762986," ""- N/A -   """
0.11,5.071741,0.000261015, NaN, NaN, NaN,0.0689739," ""- N/A -   """
0.16,6.369163,0.000360978, NaN, NaN, NaN,0.06164927," ""- N/A -   """
0.21,7.666586,0.0004609408, NaN, NaN, NaN,0.0543246," ""- N/A -   """
0.26,8.964007,0.0005553504, NaN, NaN, NaN,0.05066227," ""- N/A -   """
0.31,10.26143,0.0006497599, NaN, NaN, NaN,0.04577916," ""- N/A -   """
0.36,11.7947,0.000749723, NaN, NaN, NaN,0.0372337," ""- N/A -   """
0.41,13.09217,0.0008469093, NaN, NaN, NaN,0.0323506," ""- N/A -   """
0.46,14.2716,0.0009274351, NaN, NaN, NaN,0.0323506," ""- N/A -   """
0.51,15.5691,0.00101074, NaN, NaN, NaN,0.0323506," ""- N/A -   """
0.56,16.6306,0.00108849, NaN, NaN, NaN,0.0347922," ""- N/A -   """
0.61,17.8101,0.00116901, NaN, NaN, NaN,0.03601294," ""- N/A -   """
0.66,18.9895,0.00125232, NaN, NaN, NaN,0.03601294," ""- N/A -   """
0.71,20.4049,0.00133284, NaN, NaN, NaN,0.0372337," ""- N/A -   """
0.76,21.46644,0.00141059, NaN, NaN, NaN,0.04089605," ""- N/A -   """
0.81,22.528,0.00148279, NaN, NaN, NaN,0.0445584," ""- N/A -   """
0.86,23.7074,0.00156053, NaN, NaN, NaN,0.04699994," ""- N/A -   """
0.91,25.1228,0.00164939, NaN, NaN, NaN,0.04577916," ""- N/A -   """
0.96,26.7741,0.00174935, NaN, NaN, NaN,0.0372337," ""- N/A -   """
1.01,28.1894,0.00184654, NaN, NaN, NaN,0.03112983," ""- N/A -   """
1.06,29.6048,0.00193262, NaN, NaN, NaN,0.0299091," ""- N/A -   """
1.11,30.78429,0.00201592, NaN, NaN, NaN,0.0299091," ""- N/A -   """
1.16,31.9638,0.00209089, NaN, NaN, NaN,0.0335714," ""- N/A -   """
1.21,33.1432,0.00217142, NaN, NaN, NaN,0.0347922," ""- N/A -   """
1.26,34.4407,0.00225195, NaN, NaN, NaN,0.03601294," ""- N/A -   """
1.31,35.85603,0.00234358, NaN, NaN, NaN,0.0323506," ""- N/A -   """
1.36,37.15345,0.0024241, NaN, NaN, NaN,0.0335714," ""- N/A -   """
1.41,38.3329,0.0024963, NaN, NaN, NaN,0.0384545," ""- N/A -   """
1.46,39.5124,0.00257127, NaN, NaN, NaN,0.04211683," ""- N/A -   """
1.51,40.9278,0.00265457, NaN, NaN, NaN,0.04211683," ""- N/A -   """
1.56,42.3431,0.002743431, NaN, NaN, NaN,0.0396753," ""- N/A -   """
1.61,43.6406,0.00283229, NaN, NaN, NaN,0.0384545," ""- N/A -   """
1.66,45.17388,0.00291559, NaN, NaN, NaN,0.0372337," ""- N/A -   """
1.71,46.4713,0.002996115, NaN, NaN, NaN,0.0384545," ""- N/A -   """
1.76,47.65078,0.00307942, NaN, NaN, NaN,0.0396753," ""- N/A -   """
1.81,49.1841,0.003168274, NaN, NaN, NaN,0.03601294," ""- N/A -   """
1.86,50.5995,0.00325713, NaN, NaN, NaN,0.0335714," ""- N/A -   """
1.91,51.89689,0.00334043, NaN, NaN, NaN,0.0335714," ""- N/A -   """
1.96,53.19431,0.00342096, NaN, NaN, NaN,0.0347922," ""- N/A -   """
2.01,54.6097,0.00350704, NaN, NaN, NaN,0.0335714," ""- N/A -   """
2.06,56.02505,0.00359312, NaN, NaN, NaN,0.0335714," ""- N/A -   """
2.11,57.20452,0.00367087, NaN, NaN, NaN,0.0347922," ""- N/A -   """
2.16,58.26605,0.00374862, NaN, NaN, NaN,0.0372337," ""- N/A -   """
2.21,59.68142,0.00382636, NaN, NaN, NaN,0.0396753," ""- N/A -   """
2.26,60.7429,0.00390134, NaN, NaN, NaN,0.0445584," ""- N/A -   """
2.31,62.0404,0.00398464, NaN, NaN, NaN,0.0445584," ""- N/A -   """
2.36,63.45574,0.00407349, NaN, NaN, NaN,0.04089605," ""- N/A -   """
2.41,64.98906,0.00417346, NaN, NaN, NaN,0.0335714," ""- N/A -   """
2.46,66.2865,0.004265091, NaN, NaN, NaN,0.03112983," ""- N/A -   """
2.51,67.23006,0.004340063, NaN, NaN, NaN,0.0335714," ""- N/A -   """
2.56,68.52748,0.004428919, NaN, NaN, NaN,0.03112983," ""- N/A -   """
2.61,69.8249,0.004515, NaN, NaN, NaN,0.0299091," ""- N/A -   """
2.66,70.88643,0.004598301, NaN, NaN, NaN,0.0299091," ""- N/A -   """
2.71,72.06591,0.004681604, NaN, NaN, NaN,0.03112983," ""- N/A -   """
2.76,73.12743,0.004759353, NaN, NaN, NaN,0.0323506," ""- N/A -   """
2.81,73.9531,0.004828772, NaN, NaN, NaN,0.0384545," ""- N/A -   """
2.86,74.7787,0.00489819, NaN, NaN, NaN,0.0445584," ""- N/A -   """
2.91,75.95817,0.004975939, NaN, NaN, NaN,0.04699994," ""- N/A -   """
2.96,76.90175,0.0050648, NaN, NaN, NaN,0.0445584," ""- N/A -   """
3.01,78.19917,0.005161982, NaN, NaN, NaN,0.0396753," ""- N/A -   """
3.06,79.37865,0.005250838, NaN, NaN, NaN,0.03601294," ""- N/A -   """
3.11,80.44018,0.00533692, NaN, NaN, NaN,0.0347922," ""- N/A -   """
3.16,81.38376,0.00542022, NaN, NaN, NaN,0.0347922," ""- N/A -   """
3.21,82.56323,0.00551741, NaN, NaN, NaN,0.0299091," ""- N/A -   """
3.26,83.6248,0.00560349, NaN, NaN, NaN,0.0274675," ""- N/A -   """
3.31,84.45039,0.00568123, NaN, NaN, NaN,0.0299091," ""- N/A -   """
3.36,85.276,0.00576176, NaN, NaN, NaN,0.03112983," ""- N/A -   """
3.41,85.9837,0.00583673, NaN, NaN, NaN,0.0347922," ""- N/A -   """
3.46,86.80934,0.0059117, NaN, NaN, NaN,0.0396753," ""- N/A -   """
3.51,87.63497,0.0059839, NaN, NaN, NaN,0.0433376," ""- N/A -   """
3.56,88.6965,0.00606998, NaN, NaN, NaN,0.0433376," ""- N/A -   """
3.61,89.52213,0.00615328, NaN, NaN, NaN,0.0445584," ""- N/A -   """
3.66,90.34776,0.006233808, NaN, NaN, NaN,0.04577916," ""- N/A -   """
3.71,91.40929,0.006319887, NaN, NaN, NaN,0.0433376," ""- N/A -   """
3.76,92.58876,0.00641985, NaN, NaN, NaN,0.03601294," ""- N/A -   """
3.81,93.8862,0.006519814, NaN, NaN, NaN,0.0286883," ""- N/A -   """
3.86,94.59387,0.006603116, NaN, NaN, NaN,0.0286883," ""- N/A -   """
3.91,95.41951,0.006686419, NaN, NaN, NaN,0.0286883," ""- N/A -   """
3.96,96.12719,0.006764168, NaN, NaN, NaN,0.0323506," ""- N/A -   """
4.01,96.95282,0.006836363, NaN, NaN, NaN,0.03601294," ""- N/A -   """
4.06,97.77845,0.006919666, NaN, NaN, NaN,0.0372337," ""- N/A -   """
4.11,98.83998,0.00700297, NaN, NaN, NaN,0.03601294," ""- N/A -   """
4.16,99.66561,0.007083494, NaN, NaN, NaN,0.0372337," ""- N/A -   """
4.21,100.3733,0.00715847, NaN, NaN, NaN,0.04211683," ""- N/A -   """
4.26,101.199,0.00723066, NaN, NaN, NaN,0.04577916," ""- N/A -   """
4.31,102.26,0.00731674, NaN, NaN, NaN,0.0445584," ""- N/A -   """
4.36,103.44,0.00741393, NaN, NaN, NaN,0.0384545," ""- N/A -   """
4.41,104.619,0.00750834, NaN, NaN, NaN,0.0335714," ""- N/A -   """
4.46,105.563,0.00759719, NaN, NaN, NaN,0.03112983," ""- N/A -   """
4.51,106.507,0.007677719, NaN, NaN, NaN,0.0323506," ""- N/A -   """
4.56,107.3322,0.007755468, NaN, NaN, NaN,0.0347922," ""- N/A -   """
4.61,108.158,0.007833217, NaN, NaN, NaN,0.0372337," ""- N/A -   """
4.66,109.219,0.00792485, NaN, NaN, NaN,0.0335714," ""- N/A -   """
4.71,110.163,0.008008153, NaN, NaN, NaN,0.0335714," ""- N/A -   """
4.76,110.989,0.008091455, NaN, NaN, NaN,0.0335714," ""- N/A -   """
4.81,111.8142,0.008166427, NaN, NaN, NaN,0.0372337," ""- N/A -   """
4.86,112.64,0.0082414, NaN, NaN, NaN,0.04089605," ""- N/A -   """
4.91,113.701,0.008330256, NaN, NaN, NaN,0.0396753," ""- N/A -   """
4.96,114.763,0.008410782, NaN, NaN, NaN,0.0396753," ""- N/A -   """
5.01,115.706,0.008494084, NaN, NaN, NaN,0.04089605," ""- N/A -   """
5.06,116.768,0.008580163, NaN, NaN, NaN,0.0384545," ""- N/A -   """
5.11,117.83,0.00866902, NaN, NaN, NaN,0.0372337," ""- N/A -   """
5.16,118.7731,0.008752322, NaN, NaN, NaN,0.0372337," ""- N/A -   """
5.21,119.717,0.008835625, NaN, NaN, NaN,0.03601294," ""- N/A -   """
5.26,120.778,0.00892448, NaN, NaN, NaN,0.0335714," ""- N/A -   """
5.31,121.84,0.009016113, NaN, NaN, NaN,0.03112983," ""- N/A -   """
5.36,122.783,0.009096639, NaN, NaN, NaN,0.03112983," ""- N/A -   """
5.41,123.609,0.009171612, NaN, NaN, NaN,0.0347922," ""- N/A -   """
5.46,124.788,0.009260467, NaN, NaN, NaN,0.0335714," ""- N/A -   """
5.51,125.732,0.00934377, NaN, NaN, NaN,0.0323506," ""- N/A -   """
5.56,126.44,0.00941597, NaN, NaN, NaN,0.0372337," ""- N/A -   """
5.61,127.383,0.009490938, NaN, NaN, NaN,0.04089605," ""- N/A -   """
5.66,128.327,0.00956591, NaN, NaN, NaN,0.0445584," ""- N/A -   """
5.71,129.27,0.00964921, NaN, NaN, NaN,0.0445584," ""- N/A -   """
5.76,130.568,0.009740846, NaN, NaN, NaN,0.04089605," ""- N/A -   """
5.81,131.983,0.009838033, NaN, NaN, NaN,0.0347922," ""- N/A -   """
5.86,133.045,0.009926888, NaN, NaN, NaN,0.0323506," ""- N/A -   """
5.91,133.988,0.01001019, NaN, NaN, NaN,0.0323506," ""- N/A -   """
5.96,134.814,0.0100907, NaN, NaN, NaN,0.0335714," ""- N/A -   """
6.01,136.111,0.0101768, NaN, NaN, NaN,0.0335714," ""- N/A -   """
6.06,137.173,0.0102657, NaN, NaN, NaN,0.0299091," ""- N/A -   """
6.11,138.234,0.010349, NaN, NaN, NaN,0.0299091," ""- N/A -   """
6.16,139.178,0.01042948, NaN, NaN, NaN,0.0323506," ""- N/A -   """
6.21,139.8857,0.0104989, NaN, NaN, NaN,0.0372337," ""- N/A -   """
6.26,140.829,0.0105711, NaN, NaN, NaN,0.04211683," ""- N/A -   """
6.31,141.773,0.0106461, NaN, NaN, NaN,0.04577916," ""- N/A -   """
6.36,142.952,0.0107294, NaN, NaN, NaN,0.04699994," ""- N/A -   """
6.41,144.132,0.010821, NaN, NaN, NaN,0.0433376," ""- N/A -   """
6.46,145.429,0.0109126, NaN, NaN, NaN,0.0396753," ""- N/A -   """
6.51,146.727,0.0110043, NaN, NaN, NaN,0.03601294," ""- N/A -   """
6.56,147.906,0.0110959, NaN, NaN, NaN,0.03112983," ""- N/A -   """
6.61,148.968,0.0111848, NaN, NaN, NaN,0.0299091," ""- N/A -   """
6.66,150.147,0.0112708, NaN, NaN, NaN,0.0274675," ""- N/A -   """
6.71,151.209,0.0113541, NaN, NaN, NaN,0.0274675," ""- N/A -   """
6.76,152.152,0.0114347, NaN, NaN, NaN,0.0286883," ""- N/A -   """
6.81,153.096,0.0115041, NaN, NaN, NaN,0.0347922," ""- N/A -   """
6.86,153.921,0.0115791, NaN, NaN, NaN,0.0396753," ""- N/A -   """
6.91,154.865,0.011654, NaN, NaN, NaN,0.04211683," ""- N/A -   """
6.96,155.927,0.0117346, NaN, NaN, NaN,0.0433376," ""- N/A -   """
6.99,156.634,0.0117845, NaN, NaN, NaN,0.0433376," ""- N/A -   """
7,156.87,0.0118012, NaN, NaN, NaN,0.0433376," ""- N/A -   """
7.01,157.106,0.0118179, NaN, NaN, NaN,0.0433376," ""- N/A -   """
7.09,159.111,0.0119567, NaN, NaN, NaN,0.04089605," ""- N/A -   """
7.17,161.352,0.0121094, NaN, NaN, NaN,0.0323506," ""- N/A -   """
7.25,163.2393,0.0122538, NaN, NaN, NaN,0.0274675," ""- N/A -   """
7.33,164.891,0.0123815, NaN, NaN, NaN,0.03112983," ""- N/A -   """
7.41,166.542,0.0125037, NaN, NaN, NaN,0.03601294," ""- N/A -   """
7.49,168.311,0.0126314, NaN, NaN, NaN,0.0372337," ""- N/A -   """
7.57,170.1982,0.012762, NaN, NaN, NaN,0.0384545," ""- N/A -   """
7.65,171.849,0.0128841, NaN, NaN, NaN,0.0433376," ""- N/A -   """
7.73,173.619,0.0130174, NaN, NaN, NaN,0.0433376," ""- N/A -   """
7.81,176.096,0.0131729, NaN, NaN, NaN,0.0335714," ""- N/A -   """
7.89,178.1007,0.0133145, NaN, NaN, NaN,0.0299091," ""- N/A -   """
7.97,179.634,0.0134423, NaN, NaN, NaN,0.0323506," ""- N/A -   """
8.05,181.403,0.01357, NaN, NaN, NaN,0.0347922," ""- N/A -   """
8.13,183.526,0.0137144, NaN, NaN, NaN,0.0323506," ""- N/A -   """
8.21,184.942,0.013831, NaN, NaN, NaN,0.0384545," ""- N/A -   """
8.29,186.711,0.013956, NaN, NaN, NaN,0.04211683," ""- N/A -   """
8.37,188.834,0.0140948, NaN, NaN, NaN,0.0396753," ""- N/A -   """
8.45,190.839,0.0142281, NaN, NaN, NaN,0.0396753," ""- N/A -   """
8.53,192.844,0.0143725, NaN, NaN, NaN,0.0347922," ""- N/A -   """
8.61,194.849,0.0145058, NaN, NaN, NaN,0.0347922," ""- N/A -   """
8.69,196.854,0.0146446, NaN, NaN, NaN,0.0335714," ""- N/A -   """
8.77,198.741,0.0147751, NaN, NaN, NaN,0.0347922," ""- N/A -   """
8.85,200.5107,0.0149028, NaN, NaN, NaN,0.03601294," ""- N/A -   """
8.93,202.516,0.0150389, NaN, NaN, NaN,0.0347922," ""- N/A -   """
9.01,204.285,0.0151611, NaN, NaN, NaN,0.0396753," ""- N/A -   """
9.09,206.054,0.0152832, NaN, NaN, NaN,0.0445584," ""- N/A -   """
9.17,208.295,0.0154249, NaN, NaN, NaN,0.04089605," ""- N/A -   """
9.25,210.536,0.015572, NaN, NaN, NaN,0.03601294," ""- N/A -   """
9.33,212.4234,0.0156998, NaN, NaN, NaN,0.0372337," ""- N/A -   """
9.41,214.6644,0.01584137, NaN, NaN, NaN,0.0335714," ""- N/A -   """
9.49,216.787,0.0159913, NaN, NaN, NaN,0.0262467," ""- N/A -   """
9.57,218.557,0.0161107, NaN, NaN, NaN,0.0323506," ""- N/A -   """
9.65,220.09,0.0162246, NaN, NaN, NaN,0.04089605," ""- N/A -   """
9.73,221.977,0.0163495, NaN, NaN, NaN,0.04577916," ""- N/A -   """
9.81,224.218,0.0164884, NaN, NaN, NaN,0.0433376," ""- N/A -   """
9.89,226.577,0.01663552, NaN, NaN, NaN,0.03601294," ""- N/A -   """
9.97,228.7,0.0167744, NaN, NaN, NaN,0.0335714," ""- N/A -   """
10.05,231.177,0.0169215, NaN, NaN, NaN,0.0274675," ""- N/A -   """
10.13,233.0642,0.017052, NaN, NaN, NaN,0.0286883," ""- N/A -   """
10.21,234.715,0.0171714, NaN, NaN, NaN,0.0347922," ""- N/A -   """
10.29,236.485,0.0172881, NaN, NaN, NaN,0.04211683," ""- N/A -   """
10.37,238.49,0.0174186, NaN, NaN, NaN,0.0433376," ""- N/A -   """
10.45,240.613,0.0175491, NaN, NaN, NaN,0.0445584," ""- N/A -   """
10.53,242.971,0.0176935, NaN, NaN, NaN,0.0396753," ""- N/A -   """
10.61,245.563,0.0178462, NaN, NaN, NaN,0.03112983," ""- N/A -   """
10.69,247.92,0.0179878, NaN, NaN, NaN,0.0274675," ""- N/A -   """
10.77,250.041,0.0181266, NaN, NaN, NaN,0.0250259," ""- N/A -   """
10.85,251.69,0.0182433, NaN, NaN, NaN,0.0323506," ""- N/A -   """
10.93,253.811,0.0183738, NaN, NaN, NaN,0.0335714," ""- N/A -   """
11.01,255.461,0.0184848, NaN, NaN, NaN,0.0433376," ""- N/A -   """
11.09,257.346,0.0186042, NaN, NaN, NaN,0.0494415," ""- N/A -   """
11.17,259.585,0.0187375, NaN, NaN, NaN,0.0494415," ""- N/A -   """
11.25,262.648,0.0188986, NaN, NaN, NaN,0.0372337," ""- N/A -   """
11.33,265.24,0.0190513, NaN, NaN, NaN,0.0286883," ""- N/A -   """
11.41,267.243,0.0191818, NaN, NaN, NaN,0.0299091," ""- N/A -   """
11.49,269.364,0.0193151, NaN, NaN, NaN,0.03112983," ""- N/A -   """
11.57,271.485,0.0194428, NaN, NaN, NaN,0.0335714," ""- N/A -   """
11.65,273.37,0.0195622, NaN, NaN, NaN,0.0384545," ""- N/A -   """
11.73,275.4913,0.01968717, NaN, NaN, NaN,0.04211683," ""- N/A -   """
11.81,277.8478,0.019826, NaN, NaN, NaN,0.0396753," ""- N/A -   """
11.89,280.44,0.0199648, NaN, NaN, NaN,0.0372337," ""- N/A -   """
11.97,282.561,0.02009813, NaN, NaN, NaN,0.0372337," ""- N/A -   """
12.05,284.917,0.0202397, NaN, NaN, NaN,0.0335714," ""- N/A -   """
12.13,287.51,0.0203814, NaN, NaN, NaN,0.0299091," ""- N/A -   """
12.21,289.748,0.0205146, NaN, NaN, NaN,0.03112983," ""- N/A -   """
12.29,292.105,0.0206507, NaN, NaN, NaN,0.0286883," ""- N/A -   """
12.37,293.872,0.02076455, NaN, NaN, NaN,0.0372337," ""- N/A -   """
12.45,296.111,0.0208895, NaN, NaN, NaN,0.04089605," ""- N/A -   """
12.53,298.35,0.02102001, NaN, NaN, NaN,0.04211683," ""- N/A -   """
12.61,300.9417,0.02115885, NaN, NaN, NaN,0.04211683," ""- N/A -   """
12.69,303.652,0.0213088, NaN, NaN, NaN,0.0347922," ""- N/A -   """
12.77,306.008,0.0214449, NaN, NaN, NaN,0.0335714," ""- N/A -   """
12.85,308.365,0.0215781, NaN, NaN, NaN,0.0335714," ""- N/A -   """
12.93,310.8391,0.0217142, NaN, NaN, NaN,0.03112983," ""- N/A -   """
13.01,312.842,0.0218364, NaN, NaN, NaN,0.0372337," ""- N/A -   """
13.09,314.7274,0.0219474, NaN, NaN, NaN,0.04577916," ""- N/A -   """
13.17,317.084,0.022078, NaN, NaN, NaN,0.0482207," ""- N/A -   """
13.25,320.03,0.0222279, NaN, NaN, NaN,0.04089605," ""- N/A -   """
13.33,322.8574,0.0223723, NaN, NaN, NaN,0.0347922," ""- N/A -   """
13.41,325.2139,0.0225084, NaN, NaN, NaN,0.0335714," ""- N/A -   """
13.49,327.8061,0.02265, NaN, NaN, NaN,0.0299091," ""- N/A -   """
13.57,330.398,0.02279158, NaN, NaN, NaN,0.0274675," ""- N/A -   """
13.65,332.283,0.0229054, NaN, NaN, NaN,0.0347922," ""- N/A -   """
13.73,334.404,0.0230248, NaN, NaN, NaN,0.04089605," ""- N/A -   """
13.81,336.761,0.0231526, NaN, NaN, NaN,0.0433376," ""- N/A -   """
13.89,339.353,0.02328584, NaN, NaN, NaN,0.0433376," ""- N/A -   """
13.97,342.181,0.0234302, NaN, NaN, NaN,0.0396753," ""- N/A -   """
14.05,345.244,0.02358573, NaN, NaN, NaN,0.0299091," ""- N/A -   """
14.13,347.601,0.0237162, NaN, NaN, NaN,0.03112983," ""- N/A -   """
14.21,349.84,0.0238356, NaN, NaN, NaN,0.03601294," ""- N/A -   """
14.29,352.432,0.0239661, NaN, NaN, NaN,0.0384545," ""- N/A -   """
14.37,354.9061,0.0240967, NaN, NaN, NaN,0.0384545," ""- N/A -   """
14.45,357.027,0.02421883, NaN, NaN, NaN,0.0433376," ""- N/A -   """
14.53,359.6191,0.0243521, NaN, NaN, NaN,0.0433376," ""- N/A -   """
14.61,362.6826,0.0245021, NaN, NaN, NaN,0.03601294," ""- N/A -   """
14.69,365.51,0.0246492, NaN, NaN, NaN,0.0299091," ""- N/A -   """
14.77,367.867,0.024777, NaN, NaN, NaN,0.0323506," ""- N/A -   """
14.85,370.223,0.02490191, NaN, NaN, NaN,0.03601294," ""- N/A -   """
14.93,373.0513,0.0250435, NaN, NaN, NaN,0.0323506," ""- N/A -   """
15.01,375.643,0.025174, NaN, NaN, NaN,0.0335714," ""- N/A -   """
15.09,377.882,0.02529621, NaN, NaN, NaN,0.0396753," ""- N/A -   """
15.17,380.2387,0.0254212, NaN, NaN, NaN,0.04211683," ""- N/A -   """
15.25,383.0665,0.02556, NaN, NaN, NaN,0.0396753," ""- N/A -   """
15.33,386.012,0.0257044, NaN, NaN, NaN,0.03601294," ""- N/A -   """
15.41,388.487,0.0258349, NaN, NaN, NaN,0.03601294," ""- N/A -   """
15.49,391.314,0.0259765, NaN, NaN, NaN,0.0335714," ""- N/A -   """
15.57,393.907,0.02610702, NaN, NaN, NaN,0.0335714," ""- N/A -   """
15.65,396.263,0.02623475, NaN, NaN, NaN,0.03601294," ""- N/A -   """
15.73,399.091,0.0263708, NaN, NaN, NaN,0.0347922," ""- N/A -   """
15.81,401.447,0.026493, NaN, NaN, NaN,0.0396753," ""- N/A -   """
15.89,403.922,0.02662072, NaN, NaN, NaN,0.0433376," ""- N/A -   """
[...]
19.73,538.576,0.03305723, NaN, NaN, NaN,0.0262467," ""- N/A -   """
19.82,541.414,0.0331877, NaN, NaN, NaN,0.0347922," ""- N/A -   """
19.91,543.8982,0.03331547, NaN, NaN, NaN,0.0445584," ""- N/A -   """
20,547.0918,0.0334599, NaN, NaN, NaN,0.0482207," ""- N/A -   """
20.09,551.113,0.03362924, NaN, NaN, NaN,0.0384545," ""- N/A -   """
20.18,554.78,0.03379307, NaN, NaN, NaN,0.0335714," ""- N/A -   """
20.27,558.21,0.0339513, NaN, NaN, NaN,0.0299091," ""- N/A -   """
20.36,561.6403,0.03410684, NaN, NaN, NaN,0.0274675," ""- N/A -   """
20.45,564.597,0.0342429, NaN, NaN, NaN,0.0323506," ""- N/A -   """
20.54,567.3178,0.03437341, NaN, NaN, NaN,0.04089605," ""- N/A -   """
20.63,570.63,0.0345178, NaN, NaN, NaN,0.0433376," ""- N/A -   """
20.72,573.9415,0.03466497, NaN, NaN, NaN,0.0445584," ""- N/A -   """
20.81,577.8448,0.03483435, NaN, NaN, NaN,0.03601294," ""- N/A -   """
20.9,581.748,0.035001, NaN, NaN, NaN,0.0286883," ""- N/A -   """
20.99,584.8233,0.03514257, NaN, NaN, NaN,0.0323506," ""- N/A -   """
21.08,588.017,0.035287, NaN, NaN, NaN,0.0347922," ""- N/A -   """
21.17,591.565,0.03543968, NaN, NaN, NaN,0.0347922," ""- N/A -   """
21.26,594.2858,0.03557019, NaN, NaN, NaN,0.0433376," ""- N/A -   """
21.35,597.716,0.03571458, NaN, NaN, NaN,0.0445584," ""- N/A -   """
21.44,601.619,0.035884, NaN, NaN, NaN,0.03601294," ""- N/A -   """
21.53,605.522,0.0360533, NaN, NaN, NaN,0.0274675," ""- N/A -   """
21.62,608.5978,0.0361922, NaN, NaN, NaN,0.0323506," ""- N/A -   """
21.71,611.91,0.03634213, NaN, NaN, NaN,0.0335714," ""- N/A -   """
21.8,615.3398,0.0364921, NaN, NaN, NaN,0.0335714," ""- N/A -   """
21.89,618.2968,0.0366254, NaN, NaN, NaN,0.04089605," ""- N/A -   """
21.98,621.8453,0.0367753, NaN, NaN, NaN,0.04089605," ""- N/A -   """
22.07,625.3937,0.03692802, NaN, NaN, NaN,0.0396753," ""- N/A -   """
22.16,628.9421,0.0370807, NaN, NaN, NaN,0.0384545," ""- N/A -   """
22.25,632.491,0.03723624, NaN, NaN, NaN,0.0372337," ""- N/A -   """
22.34,635.921,0.03738896, NaN, NaN, NaN,0.0347922," ""- N/A -   """
22.43,639.3508,0.03753891, NaN, NaN, NaN,0.03601294," ""- N/A -   """
22.52,643.0175,0.03769718, NaN, NaN, NaN,0.0323506," ""- N/A -   """
22.61,645.975,0.0378332, NaN, NaN, NaN,0.0372337," ""- N/A -   """
22.7,649.05,0.0379693, NaN, NaN, NaN,0.0433376," ""- N/A -   """
22.79,652.598,0.038122, NaN, NaN, NaN,0.0433376," ""- N/A -   """
22.88,656.7381,0.03829141, NaN, NaN, NaN,0.0347922," ""- N/A -   """
22.97,660.2865,0.03844413, NaN, NaN, NaN,0.0335714," ""- N/A -   """
23.06,663.7167,0.03859685, NaN, NaN, NaN,0.03112983," ""- N/A -   """
23.15,667.2651,0.03874957, NaN, NaN, NaN,0.0299091," ""- N/A -   """
23.24,670.4587,0.03888841, NaN, NaN, NaN,0.0347922," ""- N/A -   """
23.33,673.416,0.0390189, NaN, NaN, NaN,0.0433376," ""- N/A -   """
23.42,676.7276,0.0391661, NaN, NaN, NaN,0.04577916," ""- N/A -   """
23.51,680.5126,0.0393244, NaN, NaN, NaN,0.04089605," ""- N/A -   """
23.6,684.416,0.03948819, NaN, NaN, NaN,0.03601294," ""- N/A -   """
23.69,688.2008,0.03964924, NaN, NaN, NaN,0.03112983," ""- N/A -   """
23.78,691.6309,0.03980196, NaN, NaN, NaN,0.0286883," ""- N/A -   """
23.87,694.8246,0.0399408, NaN, NaN, NaN,0.0347922," ""- N/A -   """
23.96,697.782,0.0400741, NaN, NaN, NaN,0.04089605," ""- N/A -   """
24.05,701.2117,0.0402185, NaN, NaN, NaN,0.0433376," ""- N/A -   """
24.14,704.76,0.0403712, NaN, NaN, NaN,0.04211683," ""- N/A -   """
24.23,708.9,0.0405406, NaN, NaN, NaN,0.0335714," ""- N/A -   """
24.32,712.8032,0.04071, NaN, NaN, NaN,0.0262467," ""- N/A -   """
24.41,715.879,0.04084602, NaN, NaN, NaN,0.03112983," ""- N/A -   """
24.5,719.072,0.0409849, NaN, NaN, NaN,0.0372337," ""- N/A -   """
24.59,722.502,0.04113202, NaN, NaN, NaN,0.0384545," ""- N/A -   """
24.68,725.5775,0.04126531, NaN, NaN, NaN,0.0445584," ""- N/A -   """
24.77,729.008,0.0414125, NaN, NaN, NaN,0.04577916," ""- N/A -   """
24.86,733.2658,0.0415846, NaN, NaN, NaN,0.03601294," ""- N/A -   """
24.95,736.933,0.04174291, NaN, NaN, NaN,0.0335714," ""- N/A -   """
25.04,740.3627,0.0418873, NaN, NaN, NaN,0.0347922," ""- N/A -   """
25.13,743.7928,0.04203447, NaN, NaN, NaN,0.03601294," ""- N/A -   """
25.22,747.46,0.0421927, NaN, NaN, NaN,0.0335714," ""- N/A -   """
25.31,750.6531,0.04233158, NaN, NaN, NaN,0.0372337," ""- N/A -   """
25.4,754.0832,0.042476, NaN, NaN, NaN,0.0396753," ""- N/A -   """
25.49,757.75,0.04263147, NaN, NaN, NaN,0.0372337," ""- N/A -   """
25.58,761.6532,0.042787, NaN, NaN, NaN,0.0347922," ""- N/A -   """
25.67,765.202,0.0429369, NaN, NaN, NaN,0.03601294," ""- N/A -   """
25.76,768.987,0.0430952, NaN, NaN, NaN,0.03112983," ""- N/A -   """
25.85,772.535,0.0432424, NaN, NaN, NaN,0.0323506," ""- N/A -   """
25.94,776.0835,0.0433923, NaN, NaN, NaN,0.0335714," ""- N/A -   """
26.03,779.277,0.0435284, NaN, NaN, NaN,0.0384545," ""- N/A -   """
26.12,782.5889,0.04367, NaN, NaN, NaN,0.04211683," ""- N/A -   """
26.21,786.2557,0.04381992, NaN, NaN, NaN,0.0445584," ""- N/A -   """
26.3,790.395,0.04398375, NaN, NaN, NaN,0.0372337," ""- N/A -   """
26.39,794.0622,0.0441392, NaN, NaN, NaN,0.0347922," ""- N/A -   """
26.48,797.6106,0.0442892, NaN, NaN, NaN,0.0347922," ""- N/A -   """
26.57,801.6321,0.0444502, NaN, NaN, NaN,0.0299091," ""- N/A -   """
26.66,804.826,0.04458908, NaN, NaN, NaN,0.0347922," ""- N/A -   """
26.75,807.6645,0.0447168, NaN, NaN, NaN,0.0445584," ""- N/A -   """
26.84,811.2129,0.0448612, NaN, NaN, NaN,0.04699994," ""- N/A -   """
26.93,815.5893,0.0450361, NaN, NaN, NaN,0.03601294," ""- N/A -   """
27.02,819.374,0.0451944, NaN, NaN, NaN,0.0335714," ""- N/A -   """
27.11,823.2775,0.0453555, NaN, NaN, NaN,0.0286883," ""- N/A -   """
27.2,826.8259,0.0455026, NaN, NaN, NaN,0.0299091," ""- N/A -   """
27.29,830.02,0.0456359, NaN, NaN, NaN,0.03601294," ""- N/A -   """
27.38,832.9765,0.0457664, NaN, NaN, NaN,0.04577916," ""- N/A -   """
27.47,836.8798,0.0459164, NaN, NaN, NaN,0.0445584," ""- N/A -   """
27.56,840.5465,0.04606909, NaN, NaN, NaN,0.0433376," ""- N/A -   """
27.65,844.9229,0.04624125, NaN, NaN, NaN,0.0335714," ""- N/A -   """
27.74,848.826,0.0463995, NaN, NaN, NaN,0.03112983," ""- N/A -   """
27.83,852.138,0.0465439, NaN, NaN, NaN,0.0323506," ""- N/A -   """
27.92,855.5682,0.0466828, NaN, NaN, NaN,0.0372337," ""- N/A -   """
28.01,859.3532,0.0468327, NaN, NaN, NaN,0.0372337," ""- N/A -   """
28.1,862.665,0.0469688, NaN, NaN, NaN,0.0433376," ""- N/A -   """
28.19,866.3317,0.0471187, NaN, NaN, NaN,0.0433376," ""- N/A -   """
28.28,870.7081,0.04729086, NaN, NaN, NaN,0.0347922," ""- N/A -   """
28.37,874.73,0.04745469, NaN, NaN, NaN,0.0286883," ""- N/A -   """
28.46,878.042,0.0475907, NaN, NaN, NaN,0.0335714," ""- N/A -   """
28.55,881.9448,0.047749, NaN, NaN, NaN,0.03112983," ""- N/A -   """
28.64,885.375,0.0478906, NaN, NaN, NaN,0.0335714," ""- N/A -   """
28.73,888.569,0.0480211, NaN, NaN, NaN,0.04211683," ""- N/A -   """
28.82,892.117,0.0481711, NaN, NaN, NaN,0.0433376," ""- N/A -   """
28.91,896.02,0.04832659, NaN, NaN, NaN,0.0396753," ""- N/A -   """
29,900.2783,0.04848764, NaN, NaN, NaN,0.0347922," ""- N/A -   """
29.09,903.5903,0.0486293, NaN, NaN, NaN,0.0384545," ""- N/A -   """
29.18,907.73,0.04879586, NaN, NaN, NaN,0.03112983," ""- N/A -   """
29.27,911.0419,0.0489375, NaN, NaN, NaN,0.0347922," ""- N/A -   """
29.36,914.9452,0.049093, NaN, NaN, NaN,0.0323506," ""- N/A -   """
29.45,918.257,0.0492318, NaN, NaN, NaN,0.0372337," ""- N/A -   """
29.54,921.569,0.04936787, NaN, NaN, NaN,0.0445584," ""- N/A -   """
29.63,925.472,0.04952337, NaN, NaN, NaN,0.04211683," ""- N/A -   """
29.72,930.085,0.0496983, NaN, NaN, NaN,0.0299091," ""- N/A -   """
29.81,933.515,0.0498455, NaN, NaN, NaN,0.0323506," ""- N/A -   """
29.9,937.182,0.04999542, NaN, NaN, NaN,0.03112983," ""- N/A -   """
29.99,940.967,0.0501454, NaN, NaN, NaN,0.0323506," ""- N/A -   """
30.08,943.924,0.05027309, NaN, NaN, NaN,0.04089605," ""- N/A -   """
30.17,947.236,0.05040915, NaN, NaN, NaN,0.04699994," ""- N/A -   """
30.26,951.2574,0.0505702, NaN, NaN, NaN,0.04211683," ""- N/A -   """
30.35,955.5155,0.0507368, NaN, NaN, NaN,0.0347922," ""- N/A -   """
30.44,959.419,0.0508923, NaN, NaN, NaN,0.0335714," ""- N/A -   """
30.53,963.44,0.0510534, NaN, NaN, NaN,0.0286883," ""- N/A -   """
30.62,966.9888,0.0512005, NaN, NaN, NaN,0.0286883," ""- N/A -   """
30.71,970.1823,0.0513338, NaN, NaN, NaN,0.0372337," ""- N/A -   """
30.8,973.4942,0.0514671, NaN, NaN, NaN,0.0445584," ""- N/A -   """
30.89,977.2792,0.0516226, NaN, NaN, NaN,0.04211683," ""- N/A -   """
30.98,981.064,0.05177254, NaN, NaN, NaN,0.04211683," ""- N/A -   """
31.062,984.8492,0.05192248, NaN, NaN, NaN,0.03601294," ""- N/A -   """