File: 2_Tensile_Data/Hamel_ForceTest_Bolt5_Test5.csv
Time, Load (lb), Position (in), AxialStrain (in), TransverseStrain (in), Auxiliary (), Control Out (V), Stress (psi)
0.0, 1.41537, 0.0, NaN, NaN, NaN, 0.0982726, "- N/A -   "
0.01, 2.005107, 3.054427E-5, NaN, NaN, NaN, 0.104376, "- N/A -   "
0.02, 2.712792, 6.386529E-5, NaN, NaN, NaN, 0.100714, "- N/A -   "
0.03, 3.42048, 9.718631E-5, NaN, NaN, NaN, 0.09338949, "- N/A -   "
0.04, 4.010214, 0.000127731, NaN, NaN, NaN, 0.0872856, "- N/A -   "
0.05, 4.59995, 1.554981E-4, NaN, NaN, NaN, 0.08362327, "- N/A -   "
0.06, 5.071741, 0.000180489, NaN, NaN, NaN, 0.07874016, "- N/A -   "
0.07, 5.54353, 0.00020548, NaN, NaN, NaN, 0.0750778, "- N/A -   "
0.08, 5.897373, 0.000227694, NaN, NaN, NaN, 0.07263627, "- N/A -   "
0.09, 6.369163, 2.526844E-4, NaN, NaN, NaN, 0.0689739, "- N/A -   "
0.1, 6.84095, 2.776752E-4, NaN, NaN, NaN, 0.0653116, "- N/A -   "
0.11, 7.1948, 0.000302666, NaN, NaN, NaN, 0.06164927, "- N/A -   "
0.12, 7.784533, 0.00032488, NaN, NaN, NaN, 0.0592077, "- N/A -   "
0.13, 8.138375, 0.000349871, NaN, NaN, NaN, 0.05676616, "- N/A -   "
0.14, 8.492218, 3.748615E-4, NaN, NaN, NaN, 0.0531038, "- N/A -   "
0.15, 8.964007, 0.000397076, NaN, NaN, NaN, 0.05066227, "- N/A -   "
0.16, 9.31785, 4.192895E-4, NaN, NaN, NaN, 0.04699994, "- N/A -   "
0.17, 9.78964, 0.000441504, NaN, NaN, NaN, 0.0445584, "- N/A -   "
0.18, 10.1435, 0.000463718, NaN, NaN, NaN, 0.04211683, "- N/A -   "
0.19, 10.3794, 0.000485932, NaN, NaN, NaN, 0.0396753, "- N/A -   "
0.2, 10.8512, 0.000502592, NaN, NaN, NaN, 0.0396753, "- N/A -   "
0.21, 11.205, 5.192526E-4, NaN, NaN, NaN, 0.0396753, "- N/A -   "
0.22, 11.5589, 0.00053869, NaN, NaN, NaN, 0.0384545, "- N/A -   "
0.23, 11.7947, 5.553504E-4, NaN, NaN, NaN, 0.0384545, "- N/A -   "
0.24, 12.14859, 5.720109E-4, NaN, NaN, NaN, 0.0384545, "- N/A -   "
0.25, 12.5024, 0.000591448, NaN, NaN, NaN, 0.0372337, "- N/A -   "
0.26, 12.7383, 6.108854E-4, NaN, NaN, NaN, 0.03601294, "- N/A -   "
0.27, 13.09217, 0.000627546, NaN, NaN, NaN, 0.03601294, "- N/A -   "
0.28, 13.3281, 6.414297E-4, NaN, NaN, NaN, 0.0372337, "- N/A -   "
0.29, 13.6819, 0.00065809, NaN, NaN, NaN, 0.0372337, "- N/A -   "
0.3, 13.7999, 6.719739E-4, NaN, NaN, NaN, 0.0384545, "- N/A -   "
0.31, 14.1537, 0.000688634, NaN, NaN, NaN, 0.0396753, "- N/A -   "
0.32, 14.3896, 7.025182E-4, NaN, NaN, NaN, 0.0396753, "- N/A -   "
0.33, 14.5075, 7.191787E-4, NaN, NaN, NaN, 0.04089605, "- N/A -   "
0.34, 14.9793, 0.000733062, NaN, NaN, NaN, 0.04089605, "- N/A -   "
0.35, 15.2152, 7.49723E-4, NaN, NaN, NaN, 0.04089605, "- N/A -   "
0.36, 15.4511, 0.000763607, NaN, NaN, NaN, 0.04211683, "- N/A -   "
0.37, 15.805, 0.000780267, NaN, NaN, NaN, 0.04211683, "- N/A -   "
0.38, 16.0409, 0.000794151, NaN, NaN, NaN, 0.0433376, "- N/A -   "
0.39, 16.27675, 8.080348E-4, NaN, NaN, NaN, 0.0445584, "- N/A -   "
0.4, 16.5126, 8.246953E-4, NaN, NaN, NaN, 0.0445584, "- N/A -   "
0.409, 16.74854, 8.413558E-4, NaN, NaN, NaN, 0.04577916, "- N/A -   "
0.45, 17.928, 9.052211E-4, NaN, NaN, NaN, 0.04577916, "- N/A -   "
0.49, 19.1075, 9.746399E-4, NaN, NaN, NaN, 0.0445584, "- N/A -   "
0.53, 20.6408, 0.00105239, NaN, NaN, NaN, 0.0396753, "- N/A -   "
0.57, 21.93823, 0.00112181, NaN, NaN, NaN, 0.0384545, "- N/A -   "
0.61, 23.1177, 0.001194, NaN, NaN, NaN, 0.0372337, "- N/A -   "
0.65, 24.4151, 0.00126065, NaN, NaN, NaN, 0.03601294, "- N/A -   "
0.69, 25.5946, 0.00132729, NaN, NaN, NaN, 0.03601294, "- N/A -   "
0.73, 27.01, 0.00140781, NaN, NaN, NaN, 0.0299091, "- N/A -   "
0.77, 28.3074, 0.00148001, NaN, NaN, NaN, 0.0274675, "- N/A -   "
0.81, 29.3689, 0.001543874, NaN, NaN, NaN, 0.0286883, "- N/A -   "
0.85, 30.4304, 0.00160774, NaN, NaN, NaN, 0.0299091, "- N/A -   "
0.89, 31.8458, 0.0016716, NaN, NaN, NaN, 0.03112983, "- N/A -   "
0.929, 32.7894, 0.00172992, NaN, NaN, NaN, 0.0347922, "- N/A -   "
0.97, 33.61503, 0.00178267, NaN, NaN, NaN, 0.04089605, "- N/A -   "
1.01, 34.7945, 0.00184099, NaN, NaN, NaN, 0.0445584, "- N/A -   "
1.05, 35.85603, 0.00190485, NaN, NaN, NaN, 0.04577916, "- N/A -   "
1.09, 37.0355, 0.00197149, NaN, NaN, NaN, 0.04699994, "- N/A -   "
1.13, 38.3329, 0.002038136, NaN, NaN, NaN, 0.04577916, "- N/A -   "
1.17, 39.6304, 0.00210755, NaN, NaN, NaN, 0.0445584, "- N/A -   "
1.21, 40.9278, 0.00217975, NaN, NaN, NaN, 0.04211683, "- N/A -   "
1.25, 42.2252, 0.00225472, NaN, NaN, NaN, 0.0384545, "- N/A -   "
1.29, 43.75851, 0.00233803, NaN, NaN, NaN, 0.0323506, "- N/A -   "
1.33, 45.17388, 0.00240744, NaN, NaN, NaN, 0.0299091, "- N/A -   "
1.37, 46.3534, 0.00247131, NaN, NaN, NaN, 0.03112983, "- N/A -   "
1.41, 47.4149, 0.00253517, NaN, NaN, NaN, 0.0323506, "- N/A -   "
1.45, 48.59436, 0.00260182, NaN, NaN, NaN, 0.0323506, "- N/A -   "
1.49, 49.7738, 0.00266568, NaN, NaN, NaN, 0.0335714, "- N/A -   "
1.53, 50.9533, 0.00272677, NaN, NaN, NaN, 0.03601294, "- N/A -   "
1.57, 52.1328, 0.00279064, NaN, NaN, NaN, 0.0372337, "- N/A -   "
1.61, 53.3123, 0.002854501, NaN, NaN, NaN, 0.0384545, "- N/A -   "
1.65, 54.4917, 0.00292114, NaN, NaN, NaN, 0.0384545, "- N/A -   "
1.69, 55.55326, 0.00298223, NaN, NaN, NaN, 0.04089605, "- N/A -   "
1.73, 56.73273, 0.00304332, NaN, NaN, NaN, 0.0433376, "- N/A -   "
1.77, 57.91221, 0.003109962, NaN, NaN, NaN, 0.0433376, "- N/A -   "
1.81, 59.2096, 0.0031766, NaN, NaN, NaN, 0.0433376, "- N/A -   "
1.85, 60.5071, 0.0032488, NaN, NaN, NaN, 0.04089605, "- N/A -   "
1.89, 62.0404, 0.00332933, NaN, NaN, NaN, 0.0347922, "- N/A -   "
1.93, 63.45574, 0.00340152, NaN, NaN, NaN, 0.0323506, "- N/A -   "
1.97, 64.75317, 0.00347372, NaN, NaN, NaN, 0.0299091, "- N/A -   "
2.01, 65.93263, 0.00354036, NaN, NaN, NaN, 0.0299091, "- N/A -   "
2.05, 67.1121, 0.00360145, NaN, NaN, NaN, 0.0323506, "- N/A -   "
2.09, 68.17364, 0.00366254, NaN, NaN, NaN, 0.0347922, "- N/A -   "
2.13, 69.23517, 0.0037264, NaN, NaN, NaN, 0.03601294, "- N/A -   "
2.17, 70.6505, 0.0037986, NaN, NaN, NaN, 0.0335714, "- N/A -   "
2.21, 71.83001, 0.00386802, NaN, NaN, NaN, 0.0323506, "- N/A -   "
2.25, 73.12743, 0.00393188, NaN, NaN, NaN, 0.0335714, "- N/A -   "
2.29, 74.3069, 0.003992969, NaN, NaN, NaN, 0.03601294, "- N/A -   "
2.33, 75.36844, 0.00405406, NaN, NaN, NaN, 0.0384545, "- N/A -   "
2.37, 76.43, 0.00411515, NaN, NaN, NaN, 0.04089605, "- N/A -   "
2.41, 77.49149, 0.00417346, NaN, NaN, NaN, 0.0445584, "- N/A -   "
2.45, 78.78891, 0.00424843, NaN, NaN, NaN, 0.04211683, "- N/A -   "
2.49, 80.20428, 0.004312296, NaN, NaN, NaN, 0.04211683, "- N/A -   "
2.53, 81.5017, 0.004384491, NaN, NaN, NaN, 0.0396753, "- N/A -   "
2.57, 82.79912, 0.00445946, NaN, NaN, NaN, 0.03601294, "- N/A -   "
2.61, 84.09654, 0.00452611, NaN, NaN, NaN, 0.03601294, "- N/A -   "
2.65, 85.39397, 0.004592748, NaN, NaN, NaN, 0.03601294, "- N/A -   "
2.69, 86.69139, 0.004664943, NaN, NaN, NaN, 0.0335714, "- N/A -   "
2.73, 87.8709, 0.00473159, NaN, NaN, NaN, 0.0347922, "- N/A -   "
2.77, 89.16828, 0.004801004, NaN, NaN, NaN, 0.0323506, "- N/A -   "
2.81, 90.34776, 0.004864869, NaN, NaN, NaN, 0.0335714, "- N/A -   "
2.85, 91.52724, 0.00493151, NaN, NaN, NaN, 0.0335714, "- N/A -   "
2.89, 92.82466, 0.004998153, NaN, NaN, NaN, 0.0335714, "- N/A -   "
2.93, 94.1221, 0.0050648, NaN, NaN, NaN, 0.0335714, "- N/A -   "
2.97, 95.18361, 0.005128661, NaN, NaN, NaN, 0.0347922, "- N/A -   "
3.01, 96.481, 0.005198079, NaN, NaN, NaN, 0.0347922, "- N/A -   "
3.05, 97.6605, 0.00525917, NaN, NaN, NaN, 0.03601294, "- N/A -   "
3.09, 98.83998, 0.00531748, NaN, NaN, NaN, 0.0396753, "- N/A -   "
3.13, 99.9015, 0.005384122, NaN, NaN, NaN, 0.0396753, "- N/A -   "
3.17, 101.199, 0.00544799, NaN, NaN, NaN, 0.04089605, "- N/A -   "
3.21, 102.3784, 0.005514629, NaN, NaN, NaN, 0.04211683, "- N/A -   "
3.25, 103.558, 0.00557849, NaN, NaN, NaN, 0.04211683, "- N/A -   "
3.29, 104.973, 0.00565069, NaN, NaN, NaN, 0.0396753, "- N/A -   "
3.33, 106.389, 0.00572566, NaN, NaN, NaN, 0.0372337, "- N/A -   "
3.37, 107.804, 0.005797858, NaN, NaN, NaN, 0.0335714, "- N/A -   "
3.41, 109.101, 0.00587283, NaN, NaN, NaN, 0.03112983, "- N/A -   "
3.45, 110.163, 0.0059367, NaN, NaN, NaN, 0.03112983, "- N/A -   "
3.49, 111.46, 0.005997784, NaN, NaN, NaN, 0.0335714, "- N/A -   "
3.53, 112.522, 0.00606998, NaN, NaN, NaN, 0.0323506, "- N/A -   "
3.57, 113.937, 0.0061394, NaN, NaN, NaN, 0.03112983, "- N/A -   "
3.61, 115.117, 0.006200487, NaN, NaN, NaN, 0.0335714, "- N/A -   "
3.65, 116.296, 0.006267129, NaN, NaN, NaN, 0.0335714, "- N/A -   "
3.69, 117.476, 0.006330994, NaN, NaN, NaN, 0.0347922, "- N/A -   "
3.73, 118.419, 0.006389306, NaN, NaN, NaN, 0.0384545, "- N/A -   "
3.77, 119.363, 0.00644206, NaN, NaN, NaN, 0.0445584, "- N/A -   "
3.81, 120.424, 0.006500376, NaN, NaN, NaN, 0.0482207, "- N/A -   "
3.85, 121.604, 0.006567018, NaN, NaN, NaN, 0.0482207, "- N/A -   "
3.89, 123.019, 0.006639214, NaN, NaN, NaN, 0.04577916, "- N/A -   "
3.929, 124.435, 0.006714186, NaN, NaN, NaN, 0.04211683, "- N/A -   "
3.969, 125.732, 0.006789158, NaN, NaN, NaN, 0.0384545, "- N/A -   "
4.01, 127.265, 0.00686691, NaN, NaN, NaN, 0.0335714, "- N/A -   "
4.05, 128.327, 0.006936326, NaN, NaN, NaN, 0.0323506, "- N/A -   "
4.09, 129.624, 0.007005745, NaN, NaN, NaN, 0.03112983, "- N/A -   "
4.13, 130.922, 0.00707239, NaN, NaN, NaN, 0.03112983, "- N/A -   "
4.17, 132.101, 0.00714458, NaN, NaN, NaN, 0.0299091, "- N/A -   "
4.21, 133.281, 0.00720845, NaN, NaN, NaN, 0.0299091, "- N/A -   "
4.25, 134.46, 0.00727509, NaN, NaN, NaN, 0.0299091, "- N/A -   "
4.29, 135.758, 0.00734173, NaN, NaN, NaN, 0.0299091, "- N/A -   "
4.33, 136.701, 0.00739727, NaN, NaN, NaN, 0.0347922, "- N/A -   "
4.37, 137.6447, 0.0074528, NaN, NaN, NaN, 0.0396753, "- N/A -   "
4.41, 138.706, 0.00751389, NaN, NaN, NaN, 0.04211683, "- N/A -   "
4.45, 139.8857, 0.007577756, NaN, NaN, NaN, 0.0445584, "- N/A -   "
4.49, 141.065, 0.00764162, NaN, NaN, NaN, 0.0445584, "- N/A -   "
4.53, 142.3626, 0.00771104, NaN, NaN, NaN, 0.0433376, "- N/A -   "
4.57, 143.542, 0.007774906, NaN, NaN, NaN, 0.0445584, "- N/A -   "
4.61, 144.957, 0.0078471, NaN, NaN, NaN, 0.04211683, "- N/A -   "
4.65, 146.255, 0.007922073, NaN, NaN, NaN, 0.0396753, "- N/A -   "
4.69, 147.67, 0.007997046, NaN, NaN, NaN, 0.0347922, "- N/A -   "
4.73, 149.204, 0.008074795, NaN, NaN, NaN, 0.0299091, "- N/A -   "
4.77, 150.383, 0.008144213, NaN, NaN, NaN, 0.0286883, "- N/A -   "
4.81, 151.5625, 0.008205302, NaN, NaN, NaN, 0.03112983, "- N/A -   "
4.85, 152.742, 0.00826917, NaN, NaN, NaN, 0.0323506, "- N/A -   "
4.89, 154.0394, 0.008335809, NaN, NaN, NaN, 0.0323506, "- N/A -   "
4.93, 155.101, 0.008396898, NaN, NaN, NaN, 0.0347922, "- N/A -   "
4.97, 156.162, 0.008460763, NaN, NaN, NaN, 0.03601294, "- N/A -   "
5.01, 157.46, 0.008524628, NaN, NaN, NaN, 0.0372337, "- N/A -   "
5.05, 158.639, 0.008594047, NaN, NaN, NaN, 0.03601294, "- N/A -   "
5.09, 159.819, 0.00865514, NaN, NaN, NaN, 0.0384545, "- N/A -   "
5.13, 160.998, 0.008716225, NaN, NaN, NaN, 0.04089605, "- N/A -   "
5.17, 162.06, 0.008777313, NaN, NaN, NaN, 0.0433376, "- N/A -   "
5.21, 163.2393, 0.008841178, NaN, NaN, NaN, 0.04577916, "- N/A -   "
5.25, 164.537, 0.008905044, NaN, NaN, NaN, 0.04577916, "- N/A -   "
5.29, 166.07, 0.00898279, NaN, NaN, NaN, 0.04089605, "- N/A -   "
5.33, 167.603, 0.009063318, NaN, NaN, NaN, 0.0347922, "- N/A -   "
5.37, 169.019, 0.009138291, NaN, NaN, NaN, 0.03112983, "- N/A -   "
5.41, 170.316, 0.00920771, NaN, NaN, NaN, 0.0299091, "- N/A -   "
5.45, 171.496, 0.009271575, NaN, NaN, NaN, 0.03112983, "- N/A -   "
5.49, 172.793, 0.00933544, NaN, NaN, NaN, 0.0323506, "- N/A -   "
5.53, 173.855, 0.009396529, NaN, NaN, NaN, 0.0347922, "- N/A -   "
5.57, 175.034, 0.009457617, NaN, NaN, NaN, 0.0372337, "- N/A -   "
5.61, 176.449, 0.009532589, NaN, NaN, NaN, 0.0347922, "- N/A -   "
5.65, 177.865, 0.009604785, NaN, NaN, NaN, 0.03112983, "- N/A -   "
5.69, 179.162, 0.009671426, NaN, NaN, NaN, 0.0323506, "- N/A -   "
5.73, 180.46, 0.009729738, NaN, NaN, NaN, 0.0347922, "- N/A -   "
5.77, 181.285, 0.009785273, NaN, NaN, NaN, 0.0396753, "- N/A -   "
5.81, 182.465, 0.009843585, NaN, NaN, NaN, 0.0433376, "- N/A -   "
5.85, 183.762, 0.009913004, NaN, NaN, NaN, 0.04211683, "- N/A -   "
5.89, 185.295, 0.009985199, NaN, NaN, NaN, 0.04089605, "- N/A -   "
5.93, 186.593, 0.0100518, NaN, NaN, NaN, 0.0396753, "- N/A -   "
5.97, 188.008, 0.010124, NaN, NaN, NaN, 0.0372337, "- N/A -   "
5.99, 188.716, 0.0101601, NaN, NaN, NaN, 0.03601294, "- N/A -   "
6, 188.834, 0.010174, NaN, NaN, NaN, 0.0372337, "- N/A -   "
6.01, 189.188, 0.0101907, NaN, NaN, NaN, 0.0372337, "- N/A -   "
6.03, 189.777, 0.0102212, NaN, NaN, NaN, 0.0384545, "- N/A -   "
6.05, 190.485, 0.0102573, NaN, NaN, NaN, 0.0372337, "- N/A -   "
6.07, 191.193, 0.0102906, NaN, NaN, NaN, 0.0372337, "- N/A -   "
6.09, 191.901, 0.0103267, NaN, NaN, NaN, 0.03601294, "- N/A -   "
6.11, 192.49, 0.0103573, NaN, NaN, NaN, 0.0372337, "- N/A -   "
6.13, 193.198, 0.0103934, NaN, NaN, NaN, 0.03601294, "- N/A -   "
6.15, 193.906, 0.0104295, NaN, NaN, NaN, 0.0347922, "- N/A -   "
6.17, 194.613, 0.0104656, NaN, NaN, NaN, 0.0335714, "- N/A -   "
6.19, 195.321, 0.0105017, NaN, NaN, NaN, 0.0323506, "- N/A -   "
6.21, 195.911, 0.010535, NaN, NaN, NaN, 0.0323506, "- N/A -   "
6.23, 196.618, 0.0105683, NaN, NaN, NaN, 0.0323506, "- N/A -   "
6.25, 197.208, 0.0105989, NaN, NaN, NaN, 0.0335714, "- N/A -   "
6.27, 197.916, 0.0106322, NaN, NaN, NaN, 0.0335714, "- N/A -   "
6.29, 198.624, 0.0106683, NaN, NaN, NaN, 0.0323506, "- N/A -   "
6.31, 199.331, 0.0107016, NaN, NaN, NaN, 0.0323506, "- N/A -   "
6.33, 199.921, 0.0107349, NaN, NaN, NaN, 0.0323506, "- N/A -   "
6.35, 200.629, 0.0107682, NaN, NaN, NaN, 0.0323506, "- N/A -   "
6.37, 201.1, 0.0108016, NaN, NaN, NaN, 0.0323506, "- N/A -   "
6.39, 201.808, 0.0108349, NaN, NaN, NaN, 0.0323506, "- N/A -   "
6.41, 202.516, 0.0108682, NaN, NaN, NaN, 0.0323506, "- N/A -   "
6.43, 203.106, 0.0109015, NaN, NaN, NaN, 0.0323506, "- N/A -   "
6.45, 203.695, 0.0109293, NaN, NaN, NaN, 0.0347922, "- N/A -   "
6.47, 204.285, 0.0109598, NaN, NaN, NaN, 0.0372337, "- N/A -   "
6.49, 204.875, 0.0109876, NaN, NaN, NaN, 0.0384545, "- N/A -   "
6.51, 205.465, 0.0110209, NaN, NaN, NaN, 0.0384545, "- N/A -   "
6.53, 206.172, 0.0110542, NaN, NaN, NaN, 0.0384545, "- N/A -   "
6.55, 206.762, 0.0110848, NaN, NaN, NaN, 0.0396753, "- N/A -   "
6.57, 207.2337, 0.0111126, NaN, NaN, NaN, 0.04211683, "- N/A -   "
6.59, 207.823, 0.0111431, NaN, NaN, NaN, 0.0433376, "- N/A -   "
6.61, 208.4132, 0.01117365, NaN, NaN, NaN, 0.0445584, "- N/A -   "
6.63, 209.003, 0.0112042, NaN, NaN, NaN, 0.04577916, "- N/A -   "
6.65, 209.711, 0.0112375, NaN, NaN, NaN, 0.04577916, "- N/A -   "
6.67, 210.418, 0.0112736, NaN, NaN, NaN, 0.04577916, "- N/A -   "
6.69, 211.244, 0.0113097, NaN, NaN, NaN, 0.0433376, "- N/A -   "
6.71, 212.07, 0.0113486, NaN, NaN, NaN, 0.04089605, "- N/A -   "
6.73, 212.895, 0.0113875, NaN, NaN, NaN, 0.0384545, "- N/A -   "
6.75, 213.721, 0.0114263, NaN, NaN, NaN, 0.03601294, "- N/A -   "
6.77, 214.546, 0.0114652, NaN, NaN, NaN, 0.0347922, "- N/A -   "
6.79, 215.136, 0.0114985, NaN, NaN, NaN, 0.0335714, "- N/A -   "
6.81, 215.844, 0.0115318, NaN, NaN, NaN, 0.0335714, "- N/A -   "
6.83, 216.552, 0.0115679, NaN, NaN, NaN, 0.0323506, "- N/A -   "
6.85, 217.259, 0.011604, NaN, NaN, NaN, 0.03112983, "- N/A -   "
6.87, 217.967, 0.0116374, NaN, NaN, NaN, 0.03112983, "- N/A -   "
6.89, 218.557, 0.0116707, NaN, NaN, NaN, 0.03112983, "- N/A -   "
6.91, 219.264, 0.0117012, NaN, NaN, NaN, 0.0323506, "- N/A -   "
6.93, 219.8541, 0.01173733, NaN, NaN, NaN, 0.03112983, "- N/A -   "
6.95, 220.562, 0.01177065, NaN, NaN, NaN, 0.03112983, "- N/A -   "
6.97, 221.269, 0.0118067, NaN, NaN, NaN, 0.0299091, "- N/A -   "
6.99, 221.977, 0.0118428, NaN, NaN, NaN, 0.0286883, "- N/A -   "
7.01, 222.803, 0.0118762, NaN, NaN, NaN, 0.0286883, "- N/A -   "
7.03, 223.3925, 0.0119095, NaN, NaN, NaN, 0.0286883, "- N/A -   "
7.05, 223.982, 0.01194, NaN, NaN, NaN, 0.0299091, "- N/A -   "
7.07, 224.454, 0.0119706, NaN, NaN, NaN, 0.03112983, "- N/A -   "
7.09, 225.162, 0.0120011, NaN, NaN, NaN, 0.0323506, "- N/A -   "
7.11, 225.751, 0.0120289, NaN, NaN, NaN, 0.0347922, "- N/A -   "
7.13, 226.223, 0.0120594, NaN, NaN, NaN, 0.03601294, "- N/A -   "
7.15, 226.813, 0.0120872, NaN, NaN, NaN, 0.0384545, "- N/A -   "
7.17, 227.167, 0.012115, NaN, NaN, NaN, 0.04089605, "- N/A -   "
7.19, 227.757, 0.0121427, NaN, NaN, NaN, 0.0433376, "- N/A -   "
7.21, 228.464, 0.0121705, NaN, NaN, NaN, 0.04577916, "- N/A -   "
7.23, 229.172, 0.0122038, NaN, NaN, NaN, 0.04699994, "- N/A -   "
7.25, 229.762, 0.0122371, NaN, NaN, NaN, 0.04577916, "- N/A -   "
7.27, 230.469, 0.0122705, NaN, NaN, NaN, 0.04577916, "- N/A -   "
7.29, 231.295, 0.0123038, NaN, NaN, NaN, 0.04577916, "- N/A -   "
7.31, 232.003, 0.0123427, NaN, NaN, NaN, 0.0433376, "- N/A -   "
7.33, 232.828, 0.0123815, NaN, NaN, NaN, 0.04089605, "- N/A -   "
7.35, 233.536, 0.0124176, NaN, NaN, NaN, 0.0396753, "- N/A -   "
7.37, 234.362, 0.0124565, NaN, NaN, NaN, 0.0372337, "- N/A -   "
7.39, 235.0693, 0.01248983, NaN, NaN, NaN, 0.0372337, "- N/A -   "
7.41, 235.777, 0.01252315, NaN, NaN, NaN, 0.0372337, "- N/A -   "
7.43, 236.603, 0.012562, NaN, NaN, NaN, 0.03601294, "- N/A -   "
7.45, 237.192, 0.0125953, NaN, NaN, NaN, 0.0347922, "- N/A -   "
7.47, 237.7821, 0.0126287, NaN, NaN, NaN, 0.0347922, "- N/A -   "
7.49, 238.49, 0.0126648, NaN, NaN, NaN, 0.0335714, "- N/A -   "
7.51, 239.315, 0.0127009, NaN, NaN, NaN, 0.0323506, "- N/A -   "
[...]
12.14, 407.339, 0.0203869, NaN, NaN, NaN, 0.04577916, "- N/A -   "
12.32, 415.233, 0.0207229, NaN, NaN, NaN, 0.0299091, "- N/A -   "
12.5, 422.067, 0.02102, NaN, NaN, NaN, 0.03112983, "- N/A -   "
12.68, 428.783, 0.0213005, NaN, NaN, NaN, 0.04089605, "- N/A -   "
12.86, 436.088, 0.02161146, NaN, NaN, NaN, 0.03601294, "- N/A -   "
13.04, 443.393, 0.0219225, NaN, NaN, NaN, 0.03112983, "- N/A -   "
13.22, 450.3452, 0.0222168, NaN, NaN, NaN, 0.0335714, "- N/A -   "
13.4, 456.826, 0.02249169, NaN, NaN, NaN, 0.0445584, "- N/A -   "
13.58, 464.367, 0.02280824, NaN, NaN, NaN, 0.0372337, "- N/A -   "
13.76, 471.79, 0.0231192, NaN, NaN, NaN, 0.0323506, "- N/A -   "
13.94, 478.7413, 0.0234108, NaN, NaN, NaN, 0.03601294, "- N/A -   "
14.12, 485.34, 0.0236857, NaN, NaN, NaN, 0.04699994, "- N/A -   "
14.3, 493.352, 0.0240217, NaN, NaN, NaN, 0.03112983, "- N/A -   "
14.48, 500.8926, 0.0243271, NaN, NaN, NaN, 0.0286883, "- N/A -   "
14.66, 507.1374, 0.0245937, NaN, NaN, NaN, 0.0433376, "- N/A -   "
14.84, 514.4462, 0.0248936, NaN, NaN, NaN, 0.0433376, "- N/A -   "
15.02, 522.6076, 0.025224, NaN, NaN, NaN, 0.0299091, "- N/A -   "
15.2, 529.704, 0.02551002, NaN, NaN, NaN, 0.03601294, "- N/A -   "
15.38, 536.683, 0.0257932, NaN, NaN, NaN, 0.0433376, "- N/A -   "
15.56, 544.608, 0.02611535, NaN, NaN, NaN, 0.0335714, "- N/A -   "
15.74, 551.9413, 0.0264152, NaN, NaN, NaN, 0.0335714, "- N/A -   "
15.919, 559.393, 0.0267179, NaN, NaN, NaN, 0.0323506, "- N/A -   "
16.099, 566.3715, 0.02699836, NaN, NaN, NaN, 0.04089605, "- N/A -   "
16.28, 574.06, 0.0273094, NaN, NaN, NaN, 0.03601294, "- N/A -   "
16.46, 581.748, 0.0276148, NaN, NaN, NaN, 0.0335714, "- N/A -   "
16.64, 589.2, 0.02792024, NaN, NaN, NaN, 0.03112983, "- N/A -   "
16.82, 596.06, 0.0281951, NaN, NaN, NaN, 0.04211683, "- N/A -   "
17, 604.103, 0.02851169, NaN, NaN, NaN, 0.0347922, "- N/A -   "
17.18, 612.028, 0.028831, NaN, NaN, NaN, 0.0274675, "- N/A -   "
17.36, 619.2431, 0.029117, NaN, NaN, NaN, 0.0335714, "- N/A -   "
17.54, 625.749, 0.0293808, NaN, NaN, NaN, 0.0494415, "- N/A -   "
17.72, 633.9099, 0.02970847, NaN, NaN, NaN, 0.0372337, "- N/A -   "
17.9, 641.8347, 0.03002502, NaN, NaN, NaN, 0.0299091, "- N/A -   "
18.08, 648.3402, 0.0302916, NaN, NaN, NaN, 0.0445584, "- N/A -   "
18.26, 656.1467, 0.0305998, NaN, NaN, NaN, 0.04089605, "- N/A -   "
18.44, 664.5446, 0.0309275, NaN, NaN, NaN, 0.0286883, "- N/A -   "
18.62, 671.76, 0.03121347, NaN, NaN, NaN, 0.0347922, "- N/A -   "
18.8, 678.857, 0.0314995, NaN, NaN, NaN, 0.04089605, "- N/A -   "
18.98, 686.9, 0.0318077, NaN, NaN, NaN, 0.0372337, "- N/A -   "
19.16, 694.3514, 0.0321048, NaN, NaN, NaN, 0.0384545, "- N/A -   "
19.34, 702.2762, 0.03241858, NaN, NaN, NaN, 0.0323506, "- N/A -   "
19.52, 709.373, 0.03269903, NaN, NaN, NaN, 0.04089605, "- N/A -   "
19.7, 717.1796, 0.03300725, NaN, NaN, NaN, 0.0372337, "- N/A -   "
19.88, 725.341, 0.0333238, NaN, NaN, NaN, 0.0299091, "- N/A -   "
20.06, 732.911, 0.0336209, NaN, NaN, NaN, 0.03112983, "- N/A -   "
20.24, 739.771, 0.033893, NaN, NaN, NaN, 0.0433376, "- N/A -   "
20.42, 747.814, 0.0342096, NaN, NaN, NaN, 0.03601294, "- N/A -   "
20.6, 755.7392, 0.0345178, NaN, NaN, NaN, 0.0335714, "- N/A -   "
20.78, 763.309, 0.0348121, NaN, NaN, NaN, 0.0347922, "- N/A -   "
20.96, 770.5243, 0.0350954, NaN, NaN, NaN, 0.04211683, "- N/A -   "
21.14, 778.922, 0.0354202, NaN, NaN, NaN, 0.03112983, "- N/A -   "
21.32, 786.729, 0.03572569, NaN, NaN, NaN, 0.0286883, "- N/A -   "
21.5, 793.2342, 0.0359867, NaN, NaN, NaN, 0.04577916, "- N/A -   "
21.68, 801.396, 0.0363005, NaN, NaN, NaN, 0.04089605, "- N/A -   "
21.86, 809.675, 0.03662258, NaN, NaN, NaN, 0.03112983, "- N/A -   "
22.04, 817.0086, 0.0369086, NaN, NaN, NaN, 0.0372337, "- N/A -   "
22.22, 824.342, 0.03719459, NaN, NaN, NaN, 0.0433376, "- N/A -   "
22.4, 832.74, 0.03752225, NaN, NaN, NaN, 0.0323506, "- N/A -   "
22.58, 840.31, 0.03781381, NaN, NaN, NaN, 0.0347922, "- N/A -   "
22.76, 848.235, 0.0381165, NaN, NaN, NaN, 0.0335714, "- N/A -   "
22.94, 855.4499, 0.0384025, NaN, NaN, NaN, 0.0396753, "- N/A -   "
23.12, 863.2565, 0.03870792, NaN, NaN, NaN, 0.0372337, "- N/A -   "
23.3, 871.1813, 0.0390134, NaN, NaN, NaN, 0.0347922, "- N/A -   "
23.48, 879.1061, 0.0393188, NaN, NaN, NaN, 0.0323506, "- N/A -   "
23.66, 885.8481, 0.0395909, NaN, NaN, NaN, 0.0445584, "- N/A -   "
23.84, 894.6009, 0.0399214, NaN, NaN, NaN, 0.03112983, "- N/A -   "
24.02, 902.2891, 0.0402268, NaN, NaN, NaN, 0.0286883, "- N/A -   "
24.2, 909.5043, 0.0405073, NaN, NaN, NaN, 0.0372337, "- N/A -   "
24.38, 916.8377, 0.0407905, NaN, NaN, NaN, 0.0445584, "- N/A -   "
24.56, 924.9991, 0.0411154, NaN, NaN, NaN, 0.0335714, "- N/A -   "
24.74, 932.9239, 0.04142081, NaN, NaN, NaN, 0.03112983, "- N/A -   "
24.92, 939.902, 0.0416929, NaN, NaN, NaN, 0.0433376, "- N/A -   "
25.1, 947.709, 0.04199837, NaN, NaN, NaN, 0.04089605, "- N/A -   "
25.28, 956.2252, 0.0423288, NaN, NaN, NaN, 0.0286883, "- N/A -   "
25.46, 963.677, 0.04261481, NaN, NaN, NaN, 0.0335714, "- N/A -   "
25.64, 970.4189, 0.0428842, NaN, NaN, NaN, 0.04699994, "- N/A -   "
25.82, 979.0534, 0.0432118, NaN, NaN, NaN, 0.0347922, "- N/A -   "
26, 986.623, 0.0435089, NaN, NaN, NaN, 0.03601294, "- N/A -   "
26.18, 994.548, 0.0438116, NaN, NaN, NaN, 0.03601294, "- N/A -   "
26.36, 1002.12, 0.0441059, NaN, NaN, NaN, 0.0384545, "- N/A -   "
26.54, 1009.69, 0.04440859, NaN, NaN, NaN, 0.0372337, "- N/A -   "
26.72, 1017.65, 0.04471126, NaN, NaN, NaN, 0.03601294, "- N/A -   "
26.9, 1025.64, 0.0450167, NaN, NaN, NaN, 0.0335714, "- N/A -   "
27.08, 1032.68, 0.0452916, NaN, NaN, NaN, 0.0445584, "- N/A -   "
27.26, 1041.26, 0.0456137, NaN, NaN, NaN, 0.0347922, "- N/A -   "
27.44, 1049.13, 0.0459191, NaN, NaN, NaN, 0.0323506, "- N/A -   "
27.62, 1056.41, 0.0462024, NaN, NaN, NaN, 0.0396753, "- N/A -   "
27.8, 1064.04, 0.04649671, NaN, NaN, NaN, 0.04211683, "- N/A -   "
27.98, 1072.51, 0.0468188, NaN, NaN, NaN, 0.0323506, "- N/A -   "
28.16, 1080.62, 0.04712981, NaN, NaN, NaN, 0.0274675, "- N/A -   "
28.34, 1087.17, 0.0473908, NaN, NaN, NaN, 0.0445584, "- N/A -   "
28.52, 1095.28, 0.0476963, NaN, NaN, NaN, 0.04211683, "- N/A -   "
28.7, 1103.75, 0.0480239, NaN, NaN, NaN, 0.0299091, "- N/A -   "
28.88, 1111.14, 0.0483044, NaN, NaN, NaN, 0.0384545, "- N/A -   "
29.06, 1118.66, 0.04859316, NaN, NaN, NaN, 0.0433376, "- N/A -   "
29.24, 1127.24, 0.0489208, NaN, NaN, NaN, 0.03112983, "- N/A -   "
29.42, 1134.76, 0.0492096, NaN, NaN, NaN, 0.03601294, "- N/A -   "
29.6, 1142.75, 0.0495123, NaN, NaN, NaN, 0.0347922, "- N/A -   "
29.78, 1150.259, 0.049801, NaN, NaN, NaN, 0.0396753, "- N/A -   "
29.96, 1158.25, 0.0501093, NaN, NaN, NaN, 0.03601294, "- N/A -   "
30.14, 1166.12, 0.0504119, NaN, NaN, NaN, 0.0347922, "- N/A -   "
30.32, 1173.99, 0.05071182, NaN, NaN, NaN, 0.0347922, "- N/A -   "
30.5, 1181.38, 0.050995, NaN, NaN, NaN, 0.04211683, "- N/A -   "
30.68, 1189.85, 0.05131993, NaN, NaN, NaN, 0.0323506, "- N/A -   "
30.86, 1197.96, 0.0516281, NaN, NaN, NaN, 0.0286883, "- N/A -   "
31.04, 1204.76, 0.0518947, NaN, NaN, NaN, 0.0433376, "- N/A -   "
31.22, 1212.15, 0.0521863, NaN, NaN, NaN, 0.04699994, "- N/A -   "
31.4, 1220.98, 0.05252504, NaN, NaN, NaN, 0.0299091, "- N/A -   "
31.58, 1228.73, 0.05282215, NaN, NaN, NaN, 0.03112983, "- N/A -   "
31.76, 1235.4, 0.0530915, NaN, NaN, NaN, 0.0445584, "- N/A -   "
31.94, 1243.87, 0.0534108, NaN, NaN, NaN, 0.03601294, "- N/A -   "
32.12, 1252.22, 0.05373015, NaN, NaN, NaN, 0.0274675, "- N/A -   "
32.299, 1259.37, 0.0540106, NaN, NaN, NaN, 0.03601294, "- N/A -   "
32.479, 1266.53, 0.05429105, NaN, NaN, NaN, 0.0445584, "- N/A -   "
32.659, 1275.12, 0.0546159, NaN, NaN, NaN, 0.0335714, "- N/A -   "
32.84, 1282.63, 0.0549103, NaN, NaN, NaN, 0.03601294, "- N/A -   "
33.02, 1290.26, 0.0552074, NaN, NaN, NaN, 0.0372337, "- N/A -   "
33.2, 1297.77, 0.05549894, NaN, NaN, NaN, 0.04089605, "- N/A -   "
33.38, 1306, 0.0558127, NaN, NaN, NaN, 0.0347922, "- N/A -   "
33.56, 1313.75, 0.0561182, NaN, NaN, NaN, 0.0323506, "- N/A -   "
33.74, 1321.39, 0.0564153, NaN, NaN, NaN, 0.0335714, "- N/A -   "
33.92, 1328.3, 0.0566874, NaN, NaN, NaN, 0.04577916, "- N/A -   "
34.1, 1337.01, 0.057015, NaN, NaN, NaN, 0.0335714, "- N/A -   "
34.28, 1345, 0.057326, NaN, NaN, NaN, 0.0286883, "- N/A -   "
34.46, 1351.68, 0.05759261, NaN, NaN, NaN, 0.0433376, "- N/A -   "
34.64, 1359.55, 0.05789528, NaN, NaN, NaN, 0.04211683, "- N/A -   "
34.82, 1368.01, 0.0582229, NaN, NaN, NaN, 0.03112983, "- N/A -   "
35, 1375.65, 0.05852282, NaN, NaN, NaN, 0.03112983, "- N/A -   "
35.18, 1382.56, 0.0587922, NaN, NaN, NaN, 0.0433376, "- N/A -   "
35.252, 1385.66, 0.0589116, NaN, NaN, NaN, 0.0445584, "- N/A -   "