File: 2_Tensile_Data/Hamel_ForceTest_Bolt7_Test4.csv
Time, Load (lb), Position (in), AxialStrain (in), TransverseStrain (in), Auxiliary (), Control Out (V), Stress (psi)
0.0, 1.17947, 0.0, NaN, NaN, NaN, 0.0872856, "- N/A -   "
0.01, 1.88716, 2.77675e-05, NaN, NaN, NaN, 0.09461027, "- N/A -   "
0.02, 2.476897, 6.108854E-5, NaN, NaN, NaN, 0.09338949, "- N/A -   "
0.03, 3.18458, 9.440956E-5, NaN, NaN, NaN, 0.08606482, "- N/A -   "
0.04, 3.89227, 0.000122177, NaN, NaN, NaN, 0.08118171, "- N/A -   "
0.05, 4.36406, 1.499446E-4, NaN, NaN, NaN, 0.0762986, "- N/A -   "
0.06, 4.953794, 0.000177712, NaN, NaN, NaN, 0.07263627, "- N/A -   "
0.07, 5.425584, 0.000199926, NaN, NaN, NaN, 0.0689739, "- N/A -   "
0.08, 5.897373, 0.00022214, NaN, NaN, NaN, 0.06653238, "- N/A -   "
0.09, 6.369163, 0.000244354, NaN, NaN, NaN, 0.0640908, "- N/A -   "
0.1, 6.9589, 0.000269345, NaN, NaN, NaN, 0.0604285, "- N/A -   "
0.11, 7.1948, 0.000288782, NaN, NaN, NaN, 0.0592077, "- N/A -   "
0.12, 7.666586, 3.054427E-4, NaN, NaN, NaN, 0.0592077, "- N/A -   "
0.13, 8.020428, 0.00032488, NaN, NaN, NaN, 0.0579869, "- N/A -   "
0.14, 8.256323, 0.00034154, NaN, NaN, NaN, 0.0579869, "- N/A -   "
0.15, 8.728113, 0.000358201, NaN, NaN, NaN, 0.0579869, "- N/A -   "
0.16, 9.081955, 0.000377638, NaN, NaN, NaN, 0.0579869, "- N/A -   "
0.17, 9.435798, 0.000394299, NaN, NaN, NaN, 0.05676616, "- N/A -   "
0.18, 9.78964, 0.000410959, NaN, NaN, NaN, 0.05676616, "- N/A -   "
0.19, 10.1435, 0.000430397, NaN, NaN, NaN, 0.0555454, "- N/A -   "
0.2, 10.4973, 0.000449834, NaN, NaN, NaN, 0.0543246, "- N/A -   "
0.21, 10.8512, 4.664943E-4, NaN, NaN, NaN, 0.0543246, "- N/A -   "
0.22, 11.205, 0.000485932, NaN, NaN, NaN, 0.0543246, "- N/A -   "
0.23, 11.5589, 0.000502592, NaN, NaN, NaN, 0.0531038, "- N/A -   "
0.24, 11.9127, 5.192526E-4, NaN, NaN, NaN, 0.0531038, "- N/A -   "
0.25, 12.2665, 0.00053869, NaN, NaN, NaN, 0.05188305, "- N/A -   "
0.26, 12.7383, 5.581271E-4, NaN, NaN, NaN, 0.05066227, "- N/A -   "
0.27, 13.09217, 0.000577564, NaN, NaN, NaN, 0.0494415, "- N/A -   "
0.28, 13.446, 0.000597002, NaN, NaN, NaN, 0.0482207, "- N/A -   "
0.29, 13.9178, 6.164389E-4, NaN, NaN, NaN, 0.04699994, "- N/A -   "
0.3, 14.2716, 0.000635876, NaN, NaN, NaN, 0.04577916, "- N/A -   "
0.31, 14.6255, 0.000655313, NaN, NaN, NaN, 0.0445584, "- N/A -   "
0.32, 15.0973, 6.747507E-4, NaN, NaN, NaN, 0.0433376, "- N/A -   "
0.33, 15.3332, 6.914112E-4, NaN, NaN, NaN, 0.0433376, "- N/A -   "
0.34, 15.9229, 7.080717E-4, NaN, NaN, NaN, 0.0433376, "- N/A -   "
0.35, 16.1588, 7.27509E-4, NaN, NaN, NaN, 0.04211683, "- N/A -   "
0.36, 16.5126, 0.000746946, NaN, NaN, NaN, 0.04089605, "- N/A -   "
0.37, 16.9844, 7.663835E-4, NaN, NaN, NaN, 0.0396753, "- N/A -   "
0.38, 17.3383, 0.000785821, NaN, NaN, NaN, 0.0384545, "- N/A -   "
0.39, 17.5742, 0.000802481, NaN, NaN, NaN, 0.0384545, "- N/A -   "
0.4, 18.046, 8.191418E-4, NaN, NaN, NaN, 0.0384545, "- N/A -   "
0.41, 18.3998, 8.358023E-4, NaN, NaN, NaN, 0.0384545, "- N/A -   "
0.42, 18.7536, 8.552396E-4, NaN, NaN, NaN, 0.0384545, "- N/A -   "
0.43, 19.1075, 0.0008719, NaN, NaN, NaN, 0.0384545, "- N/A -   "
0.44, 19.4613, 8.885606E-4, NaN, NaN, NaN, 0.0384545, "- N/A -   "
0.45, 19.8152, 9.052211E-4, NaN, NaN, NaN, 0.0372337, "- N/A -   "
0.46, 20.287, 9.246584E-4, NaN, NaN, NaN, 0.03601294, "- N/A -   "
0.47, 20.6408, 9.440956E-4, NaN, NaN, NaN, 0.0347922, "- N/A -   "
0.48, 21.1126, 0.000960756, NaN, NaN, NaN, 0.0347922, "- N/A -   "
0.49, 21.5844, 9.801934E-4, NaN, NaN, NaN, 0.0335714, "- N/A -   "
0.5, 21.8203, 9.996307E-4, NaN, NaN, NaN, 0.0323506, "- N/A -   "
0.51, 22.1741, 0.00101629, NaN, NaN, NaN, 0.0323506, "- N/A -   "
0.74, 30.0766, 0.0013856, NaN, NaN, NaN, 0.0384545, "- N/A -   "
0.97, 38.5688, 0.00175768, NaN, NaN, NaN, 0.0433376, "- N/A -   "
1.2, 48.2405, 0.00217142, NaN, NaN, NaN, 0.0299091, "- N/A -   "
1.43, 57.20452, 0.00253517, NaN, NaN, NaN, 0.0384545, "- N/A -   "
1.66, 66.87622, 0.00292114, NaN, NaN, NaN, 0.0372337, "- N/A -   "
1.89, 76.5479, 0.00330433, NaN, NaN, NaN, 0.0372337, "- N/A -   "
2.12, 86.33755, 0.00368475, NaN, NaN, NaN, 0.0384545, "- N/A -   "
2.35, 96.481, 0.004073495, NaN, NaN, NaN, 0.03601294, "- N/A -   "
2.58, 106.86, 0.004465017, NaN, NaN, NaN, 0.0323506, "- N/A -   "
2.81, 116.65, 0.004839879, NaN, NaN, NaN, 0.03601294, "- N/A -   "
3.04, 126.44, 0.005209187, NaN, NaN, NaN, 0.04211683, "- N/A -   "
3.27, 137.055, 0.005609039, NaN, NaN, NaN, 0.0347922, "- N/A -   "
3.5, 146.963, 0.00598945, NaN, NaN, NaN, 0.03601294, "- N/A -   "
3.73, 156.988, 0.006372646, NaN, NaN, NaN, 0.0372337, "- N/A -   "
3.96, 167.485, 0.006772498, NaN, NaN, NaN, 0.0299091, "- N/A -   "
4.19, 176.449, 0.007125145, NaN, NaN, NaN, 0.0433376, "- N/A -   "
4.42, 186.475, 0.00751389, NaN, NaN, NaN, 0.04089605, "- N/A -   "
4.65, 196.736, 0.007913743, NaN, NaN, NaN, 0.0335714, "- N/A -   "
4.88, 205.936, 0.008283051, NaN, NaN, NaN, 0.0396753, "- N/A -   "
5.11, 215.962, 0.008682903, NaN, NaN, NaN, 0.0323506, "- N/A -   "
5.34, 225.044, 0.009057764, NaN, NaN, NaN, 0.03601294, "- N/A -   "
5.57, 234.008, 0.00942707, NaN, NaN, NaN, 0.04211683, "- N/A -   "
5.8, 243.443, 0.009821371, NaN, NaN, NaN, 0.0372337, "- N/A -   "
6.03, 252.987, 0.0102157, NaN, NaN, NaN, 0.0323506, "- N/A -   "
6.26, 261.8235, 0.0105905, NaN, NaN, NaN, 0.03601294, "- N/A -   "
6.49, 270.8961, 0.0109709, NaN, NaN, NaN, 0.0372337, "- N/A -   "
6.72, 280.204, 0.0113708, NaN, NaN, NaN, 0.0299091, "- N/A -   "
6.95, 287.981, 0.0117234, NaN, NaN, NaN, 0.0433376, "- N/A -   "
7.18, 297.525, 0.0121205, NaN, NaN, NaN, 0.0372337, "- N/A -   "
7.41, 306.597, 0.01252315, NaN, NaN, NaN, 0.0286883, "- N/A -   "
7.64, 314.61, 0.0128758, NaN, NaN, NaN, 0.04211683, "- N/A -   "
7.87, 324.036, 0.0132784, NaN, NaN, NaN, 0.0335714, "- N/A -   "
8.1, 332.7548, 0.0136644, NaN, NaN, NaN, 0.0335714, "- N/A -   "
8.33, 341.238, 0.0140254, NaN, NaN, NaN, 0.0433376, "- N/A -   "
8.56, 351.018, 0.0144363, NaN, NaN, NaN, 0.03112983, "- N/A -   "
8.79, 359.9726, 0.0148112, NaN, NaN, NaN, 0.0347922, "- N/A -   "
9.02, 368.5739, 0.0151805, NaN, NaN, NaN, 0.04089605, "- N/A -   "
9.25, 378.118, 0.0155748, NaN, NaN, NaN, 0.03601294, "- N/A -   "
9.48, 387.308, 0.0159635, NaN, NaN, NaN, 0.0335714, "- N/A -   "
9.71, 396.027, 0.0163329, NaN, NaN, NaN, 0.0396753, "- N/A -   "
9.94, 405.807, 0.0167299, NaN, NaN, NaN, 0.0335714, "- N/A -   "
10.17, 414.997, 0.0171187, NaN, NaN, NaN, 0.03112983, "- N/A -   "
10.4, 423.4809, 0.0174741, NaN, NaN, NaN, 0.0433376, "- N/A -   "
10.63, 433.496, 0.0178795, NaN, NaN, NaN, 0.0335714, "- N/A -   "
10.86, 443.1578, 0.01827658, NaN, NaN, NaN, 0.0274675, "- N/A -   "
11.09, 451.523, 0.0186237, NaN, NaN, NaN, 0.0433376, "- N/A -   "
11.32, 461.421, 0.0190235, NaN, NaN, NaN, 0.03601294, "- N/A -   "
11.55, 470.965, 0.0194095, NaN, NaN, NaN, 0.0347922, "- N/A -   "
11.78, 480.1552, 0.019776, NaN, NaN, NaN, 0.04211683, "- N/A -   "
12.01, 490.5239, 0.020187, NaN, NaN, NaN, 0.0299091, "- N/A -   "
12.24, 500.068, 0.0205646, NaN, NaN, NaN, 0.0323506, "- N/A -   "
12.47, 509.3761, 0.0209312, NaN, NaN, NaN, 0.0396753, "- N/A -   "
12.7, 519.1775, 0.0213227, NaN, NaN, NaN, 0.0372337, "- N/A -   "
12.93, 529.1131, 0.0217086, NaN, NaN, NaN, 0.03601294, "- N/A -   "
13.16, 538.576, 0.02208073, NaN, NaN, NaN, 0.04089605, "- N/A -   "
13.39, 548.866, 0.0224806, NaN, NaN, NaN, 0.0347922, "- N/A -   "
13.62, 558.92, 0.0228693, NaN, NaN, NaN, 0.03112983, "- N/A -   "
13.85, 567.7909, 0.0232192, NaN, NaN, NaN, 0.04699994, "- N/A -   "
14.08, 578.554, 0.0236302, NaN, NaN, NaN, 0.0335714, "- N/A -   "
14.31, 588.608, 0.0240161, NaN, NaN, NaN, 0.0335714, "- N/A -   "
14.54, 598.0708, 0.0243743, NaN, NaN, NaN, 0.0433376, "- N/A -   "
14.77, 608.9527, 0.0247881, NaN, NaN, NaN, 0.0299091, "- N/A -   "
15, 618.4151, 0.0251518, NaN, NaN, NaN, 0.0384545, "- N/A -   "
15.23, 627.996, 0.0255156, NaN, NaN, NaN, 0.04699994, "- N/A -   "
15.46, 639.3508, 0.0259349, NaN, NaN, NaN, 0.03112983, "- N/A -   "
15.69, 649.2864, 0.0263125, NaN, NaN, NaN, 0.0347922, "- N/A -   "
15.92, 659.104, 0.0266818, NaN, NaN, NaN, 0.0396753, "- N/A -   "
16.15, 669.512, 0.0270761, NaN, NaN, NaN, 0.03601294, "- N/A -   "
16.38, 679.685, 0.0274593, NaN, NaN, NaN, 0.0347922, "- N/A -   "
16.61, 689.5019, 0.0278286, NaN, NaN, NaN, 0.04089605, "- N/A -   "
16.84, 700.029, 0.0282229, NaN, NaN, NaN, 0.03601294, "- N/A -   "
17.07, 710.7925, 0.0286255, NaN, NaN, NaN, 0.0286883, "- N/A -   "
17.3, 719.7818, 0.02897263, NaN, NaN, NaN, 0.0445584, "- N/A -   "
17.53, 730.782, 0.0293808, NaN, NaN, NaN, 0.0347922, "- N/A -   "
17.76, 740.717, 0.0297557, NaN, NaN, NaN, 0.0372337, "- N/A -   "
17.99, 750.6531, 0.030125, NaN, NaN, NaN, 0.0433376, "- N/A -   "
18.22, 761.8898, 0.0305387, NaN, NaN, NaN, 0.0299091, "- N/A -   "
18.45, 771.8254, 0.030908, NaN, NaN, NaN, 0.03601294, "- N/A -   "
18.68, 781.761, 0.0312746, NaN, NaN, NaN, 0.0433376, "- N/A -   "
18.91, 792.288, 0.0316689, NaN, NaN, NaN, 0.0384545, "- N/A -   "
19.14, 802.9332, 0.0320604, NaN, NaN, NaN, 0.03601294, "- N/A -   "
19.37, 812.751, 0.03242691, NaN, NaN, NaN, 0.04211683, "- N/A -   "
19.6, 823.869, 0.0328323, NaN, NaN, NaN, 0.0323506, "- N/A -   "
19.83, 834.159, 0.0332155, NaN, NaN, NaN, 0.0323506, "- N/A -   "
20.06, 843.7401, 0.03356815, NaN, NaN, NaN, 0.04577916, "- N/A -   "
20.29, 854.8585, 0.03397356, NaN, NaN, NaN, 0.03601294, "- N/A -   "
20.52, 865.149, 0.0343595, NaN, NaN, NaN, 0.0347922, "- N/A -   "
20.75, 875.2028, 0.0347261, NaN, NaN, NaN, 0.04211683, "- N/A -   "
20.98, 886.4395, 0.0351398, NaN, NaN, NaN, 0.0286883, "- N/A -   "
21.21, 896.139, 0.035498, NaN, NaN, NaN, 0.0396753, "- N/A -   "
21.44, 906.429, 0.0358756, NaN, NaN, NaN, 0.04211683, "- N/A -   "
21.67, 917.547, 0.036281, NaN, NaN, NaN, 0.0335714, "- N/A -   "
21.9, 927.601, 0.03665035, NaN, NaN, NaN, 0.0396753, "- N/A -   "
22.13, 938.4831, 0.0370446, NaN, NaN, NaN, 0.0347922, "- N/A -   "
22.36, 948.7735, 0.03742506, NaN, NaN, NaN, 0.03601294, "- N/A -   "
22.59, 959.064, 0.03779992, NaN, NaN, NaN, 0.0396753, "- N/A -   "
22.82, 969.473, 0.0381831, NaN, NaN, NaN, 0.0396753, "- N/A -   "
23.05, 980.3545, 0.03858019, NaN, NaN, NaN, 0.0347922, "- N/A -   "
23.28, 990.6449, 0.03895783, NaN, NaN, NaN, 0.03601294, "- N/A -   "
23.51, 1000.94, 0.0393299, NaN, NaN, NaN, 0.04089605, "- N/A -   "
23.74, 1011.58, 0.0397298, NaN, NaN, NaN, 0.0335714, "- N/A -   "
23.97, 1021.82, 0.0401019, NaN, NaN, NaN, 0.0384545, "- N/A -   "
24.2, 1032.2, 0.0404823, NaN, NaN, NaN, 0.0396753, "- N/A -   "
24.43, 1043.41, 0.04088767, NaN, NaN, NaN, 0.0299091, "- N/A -   "
24.66, 1052.83, 0.0412431, NaN, NaN, NaN, 0.04211683, "- N/A -   "
24.89, 1063.682, 0.0416346, NaN, NaN, NaN, 0.0384545, "- N/A -   "
25.12, 1074.65, 0.04203725, NaN, NaN, NaN, 0.0299091, "- N/A -   "
25.35, 1084.43, 0.04239545, NaN, NaN, NaN, 0.04089605, "- N/A -   "
25.58, 1095.28, 0.04279252, NaN, NaN, NaN, 0.0347922, "- N/A -   "
25.81, 1105.9, 0.0431785, NaN, NaN, NaN, 0.0335714, "- N/A -   "
26.04, 1115.8, 0.043545, NaN, NaN, NaN, 0.04089605, "- N/A -   "
26.27, 1127, 0.0439449, NaN, NaN, NaN, 0.0347922, "- N/A -   "
26.5, 1137.74, 0.0443336, NaN, NaN, NaN, 0.0323506, "- N/A -   "
26.73, 1147.64, 0.04470293, NaN, NaN, NaN, 0.0396753, "- N/A -   "
26.96, 1158.01, 0.0450778, NaN, NaN, NaN, 0.04211683, "- N/A -   "
27.19, 1169.34, 0.0454887, NaN, NaN, NaN, 0.0299091, "- N/A -   "
27.42, 1178.88, 0.04584417, NaN, NaN, NaN, 0.04211683, "- N/A -   "
27.65, 1190.09, 0.046244, NaN, NaN, NaN, 0.0347922, "- N/A -   "
27.88, 1201.06, 0.0466411, NaN, NaN, NaN, 0.0286883, "- N/A -   "
28.11, 1210.6, 0.0469882, NaN, NaN, NaN, 0.0445584, "- N/A -   "
28.34, 1221.45, 0.0473825, NaN, NaN, NaN, 0.04089605, "- N/A -   "
28.57, 1232.66, 0.0477823, NaN, NaN, NaN, 0.0323506, "- N/A -   "
28.8, 1242.56, 0.0481461, NaN, NaN, NaN, 0.04089605, "- N/A -   "
29.03, 1254.01, 0.04855706, NaN, NaN, NaN, 0.0286883, "- N/A -   "
29.26, 1264.5, 0.0489319, NaN, NaN, NaN, 0.0323506, "- N/A -   "
29.49, 1274.4, 0.04929845, NaN, NaN, NaN, 0.04089605, "- N/A -   "
29.72, 1285.133, 0.0496816, NaN, NaN, NaN, 0.0396753, "- N/A -   "
29.95, 1296.1, 0.0500815, NaN, NaN, NaN, 0.0323506, "- N/A -   "
30.18, 1306, 0.0504508, NaN, NaN, NaN, 0.0384545, "- N/A -   "
30.41, 1316.854, 0.0508423, NaN, NaN, NaN, 0.03601294, "- N/A -   "
30.64, 1327.83, 0.05124218, NaN, NaN, NaN, 0.0274675, "- N/A -   "
30.87, 1337.01, 0.0515865, NaN, NaN, NaN, 0.04699994, "- N/A -   "
31.1, 1348.098, 0.0519891, NaN, NaN, NaN, 0.0372337, "- N/A -   "
31.33, 1358.95, 0.052389, NaN, NaN, NaN, 0.0299091, "- N/A -   "
31.56, 1368.49, 0.0527444, NaN, NaN, NaN, 0.04211683, "- N/A -   "
31.79, 1379.819, 0.0531526, NaN, NaN, NaN, 0.03112983, "- N/A -   "
32.02, 1389.6, 0.0535247, NaN, NaN, NaN, 0.0372337, "- N/A -   "
32.25, 1399.38, 0.0538856, NaN, NaN, NaN, 0.04577916, "- N/A -   "
32.48, 1410.71, 0.0542994, NaN, NaN, NaN, 0.0323506, "- N/A -   "
32.71, 1421.08, 0.0546826, NaN, NaN, NaN, 0.0323506, "- N/A -   "
32.94, 1430.98, 0.0550547, NaN, NaN, NaN, 0.0372337, "- N/A -   "
33.17, 1441.59, 0.0554434, NaN, NaN, NaN, 0.0347922, "- N/A -   "
33.4, 1451.97, 0.0558266, NaN, NaN, NaN, 0.0347922, "- N/A -   "
33.63, 1461.75, 0.05619313, NaN, NaN, NaN, 0.04211683, "- N/A -   "
33.86, 1472.72, 0.056593, NaN, NaN, NaN, 0.0347922, "- N/A -   "
34.09, 1483.57, 0.0569901, NaN, NaN, NaN, 0.0299091, "- N/A -   "
34.32, 1492.63, 0.05733715, NaN, NaN, NaN, 0.04577916, "- N/A -   "
34.55, 1503.84, 0.05775089, NaN, NaN, NaN, 0.03112983, "- N/A -   "
34.652, 1508.61, 0.05792582, NaN, NaN, NaN, 0.0299091, "- N/A -   "