File: 2_Tensile_Data/Hamel_ForceTest_Bolt4_Test4.csv
Time, Load (lb), Position (in), AxialStrain (in), TransverseStrain (in), Auxiliary (), Control Out (V), Stress (psi)
0.0, 1.29742, 0.0, NaN, NaN, NaN, 0.09338949, "- N/A -   "
0.01, 1.76921, 3.054427E-5, NaN, NaN, NaN, 0.09949338, "- N/A -   "
0.02, 2.12305, 5.83118e-05, NaN, NaN, NaN, 0.0982726, "- N/A -   "
0.03, 2.59484, 8.885606E-5, NaN, NaN, NaN, 0.09216871, "- N/A -   "
0.04, 3.06663, 0.000116624, NaN, NaN, NaN, 0.0872856, "- N/A -   "
0.05, 3.53842, 1.388376E-4, NaN, NaN, NaN, 0.084844, "- N/A -   "
0.06, 3.89227, 0.000163828, NaN, NaN, NaN, 0.08118171, "- N/A -   "
0.07, 4.246109, 0.000186042, NaN, NaN, NaN, 0.07874016, "- N/A -   "
0.08, 4.59995, 0.000208256, NaN, NaN, NaN, 0.07751938, "- N/A -   "
0.09, 4.953794, 0.000227694, NaN, NaN, NaN, 0.0750778, "- N/A -   "
0.1, 5.307636, 2.471309E-4, NaN, NaN, NaN, 0.07385705, "- N/A -   "
0.11, 5.66148, 0.000266568, NaN, NaN, NaN, 0.07263627, "- N/A -   "
0.12, 5.897373, 0.000286005, NaN, NaN, NaN, 0.07141549, "- N/A -   "
0.13, 6.369163, 0.000308219, NaN, NaN, NaN, 0.0689739, "- N/A -   "
0.14, 6.60506, 0.000327657, NaN, NaN, NaN, 0.06775316, "- N/A -   "
0.15, 6.9589, 0.000347094, NaN, NaN, NaN, 0.06653238, "- N/A -   "
0.16, 7.312743, 0.000366531, NaN, NaN, NaN, 0.0653116, "- N/A -   "
0.17, 7.666586, 0.000388745, NaN, NaN, NaN, 0.06287005, "- N/A -   "
0.18, 8.020428, 4.081825E-4, NaN, NaN, NaN, 0.06164927, "- N/A -   "
0.19, 8.256323, 0.000430397, NaN, NaN, NaN, 0.0592077, "- N/A -   "
0.2, 8.728113, 0.000452611, NaN, NaN, NaN, 0.05676616, "- N/A -   "
0.21, 9.199903, 0.000474825, NaN, NaN, NaN, 0.0543246, "- N/A -   "
0.22, 9.435798, 4.942618E-4, NaN, NaN, NaN, 0.0531038, "- N/A -   "
0.23, 9.78964, 5.164758E-4, NaN, NaN, NaN, 0.05066227, "- N/A -   "
0.24, 10.1435, 5.359131E-4, NaN, NaN, NaN, 0.0494415, "- N/A -   "
0.25, 10.4973, 5.553504E-4, NaN, NaN, NaN, 0.0494415, "- N/A -   "
0.26, 10.73322, 5.747876E-4, NaN, NaN, NaN, 0.04699994, "- N/A -   "
0.27, 11.0871, 5.942249E-4, NaN, NaN, NaN, 0.04699994, "- N/A -   "
0.28, 11.5589, 6.108854E-4, NaN, NaN, NaN, 0.04577916, "- N/A -   "
0.29, 11.7947, 0.000630323, NaN, NaN, NaN, 0.0445584, "- N/A -   "
0.3, 12.14859, 6.497599E-4, NaN, NaN, NaN, 0.0433376, "- N/A -   "
0.31, 12.5024, 6.691972E-4, NaN, NaN, NaN, 0.04211683, "- N/A -   "
0.32, 12.8563, 0.000688634, NaN, NaN, NaN, 0.04089605, "- N/A -   "
0.33, 13.2101, 7.080717E-4, NaN, NaN, NaN, 0.0396753, "- N/A -   "
0.34, 13.446, 7.27509E-4, NaN, NaN, NaN, 0.0384545, "- N/A -   "
0.35, 13.7999, 7.49723E-4, NaN, NaN, NaN, 0.03601294, "- N/A -   "
0.36, 14.2716, 7.691603E-4, NaN, NaN, NaN, 0.0347922, "- N/A -   "
0.37, 14.5075, 0.000791374, NaN, NaN, NaN, 0.0323506, "- N/A -   "
0.38, 14.9793, 8.108115E-4, NaN, NaN, NaN, 0.03112983, "- N/A -   "
0.39, 15.3332, 8.302488E-4, NaN, NaN, NaN, 0.0299091, "- N/A -   "
0.4, 15.687, 0.000849686, NaN, NaN, NaN, 0.0286883, "- N/A -   "
0.409, 15.805, 8.663466E-4, NaN, NaN, NaN, 0.0286883, "- N/A -   "
0.42, 16.1588, 8.830071E-4, NaN, NaN, NaN, 0.0286883, "- N/A -   "
0.43, 16.5126, 0.000899668, NaN, NaN, NaN, 0.0286883, "- N/A -   "
0.44, 16.86649, 0.000919105, NaN, NaN, NaN, 0.0286883, "- N/A -   "
0.45, 17.1024, 9.329886E-4, NaN, NaN, NaN, 0.0286883, "- N/A -   "
0.46, 17.3383, 0.000949649, NaN, NaN, NaN, 0.0299091, "- N/A -   "
0.47, 17.5742, 9.635329E-4, NaN, NaN, NaN, 0.0299091, "- N/A -   "
0.48, 17.928, 9.801934E-4, NaN, NaN, NaN, 0.0299091, "- N/A -   "
0.49, 18.16391, 9.968539E-4, NaN, NaN, NaN, 0.0299091, "- N/A -   "
0.53, 19.4613, 0.00106072, NaN, NaN, NaN, 0.03112983, "- N/A -   "
0.57, 20.52286, 0.00112181, NaN, NaN, NaN, 0.0335714, "- N/A -   "
0.61, 21.5844, 0.00118012, NaN, NaN, NaN, 0.0372337, "- N/A -   "
0.65, 22.6459, 0.001241208, NaN, NaN, NaN, 0.0396753, "- N/A -   "
0.69, 23.7074, 0.00129952, NaN, NaN, NaN, 0.0433376, "- N/A -   "
0.73, 24.769, 0.00136061, NaN, NaN, NaN, 0.04577916, "- N/A -   "
0.77, 25.9484, 0.00142725, NaN, NaN, NaN, 0.04577916, "- N/A -   "
0.81, 27.1279, 0.00148834, NaN, NaN, NaN, 0.0482207, "- N/A -   "
0.85, 28.42534, 0.00155776, NaN, NaN, NaN, 0.04699994, "- N/A -   "
0.89, 29.84071, 0.00163273, NaN, NaN, NaN, 0.0433376, "- N/A -   "
0.929, 31.2561, 0.00171326, NaN, NaN, NaN, 0.0372337, "- N/A -   "
0.97, 32.7894, 0.001791, NaN, NaN, NaN, 0.0323506, "- N/A -   "
1.01, 34.2048, 0.00186875, NaN, NaN, NaN, 0.0274675, "- N/A -   "
1.05, 35.2663, 0.00193262, NaN, NaN, NaN, 0.0286883, "- N/A -   "
1.09, 36.44577, 0.00199648, NaN, NaN, NaN, 0.0299091, "- N/A -   "
1.13, 37.6252, 0.00206035, NaN, NaN, NaN, 0.0323506, "- N/A -   "
1.17, 38.68677, 0.00212144, NaN, NaN, NaN, 0.0335714, "- N/A -   "
1.21, 39.98419, 0.00217975, NaN, NaN, NaN, 0.0372337, "- N/A -   "
1.25, 41.16367, 0.002249169, NaN, NaN, NaN, 0.03601294, "- N/A -   "
1.29, 42.4611, 0.00231859, NaN, NaN, NaN, 0.0347922, "- N/A -   "
1.33, 43.5226, 0.00237968, NaN, NaN, NaN, 0.0372337, "- N/A -   "
1.37, 44.58414, 0.00243521, NaN, NaN, NaN, 0.04211683, "- N/A -   "
1.41, 45.6457, 0.0024963, NaN, NaN, NaN, 0.0445584, "- N/A -   "
1.45, 46.8251, 0.002562942, NaN, NaN, NaN, 0.0445584, "- N/A -   "
1.49, 48.00462, 0.00262681, NaN, NaN, NaN, 0.04577916, "- N/A -   "
1.53, 49.41999, 0.00270178, NaN, NaN, NaN, 0.04211683, "- N/A -   "
1.57, 50.83536, 0.00278231, NaN, NaN, NaN, 0.03601294, "- N/A -   "
1.61, 52.25073, 0.00286005, NaN, NaN, NaN, 0.0323506, "- N/A -   "
1.65, 53.19431, 0.00293225, NaN, NaN, NaN, 0.0286883, "- N/A -   "
1.69, 54.4917, 0.002998892, NaN, NaN, NaN, 0.0299091, "- N/A -   "
1.73, 55.3174, 0.003057204, NaN, NaN, NaN, 0.0323506, "- N/A -   "
1.77, 56.37889, 0.00311829, NaN, NaN, NaN, 0.0347922, "- N/A -   "
1.81, 57.44042, 0.00318493, NaN, NaN, NaN, 0.0347922, "- N/A -   "
1.85, 58.6199, 0.00325158, NaN, NaN, NaN, 0.0347922, "- N/A -   "
1.89, 59.5635, 0.003321, NaN, NaN, NaN, 0.0335714, "- N/A -   "
1.93, 60.625, 0.00338486, NaN, NaN, NaN, 0.0347922, "- N/A -   "
1.97, 61.6865, 0.00344595, NaN, NaN, NaN, 0.0372337, "- N/A -   "
2.01, 62.6301, 0.00351259, NaN, NaN, NaN, 0.0372337, "- N/A -   "
2.05, 63.45574, 0.0035709, NaN, NaN, NaN, 0.04089605, "- N/A -   "
2.09, 64.5173, 0.00363477, NaN, NaN, NaN, 0.04211683, "- N/A -   "
2.13, 65.69674, 0.003704187, NaN, NaN, NaN, 0.04089605, "- N/A -   "
2.17, 66.64032, 0.00376805, NaN, NaN, NaN, 0.04211683, "- N/A -   "
2.21, 67.70185, 0.003837471, NaN, NaN, NaN, 0.04089605, "- N/A -   "
2.25, 68.8813, 0.00390967, NaN, NaN, NaN, 0.0384545, "- N/A -   "
2.29, 70.0608, 0.003981862, NaN, NaN, NaN, 0.03601294, "- N/A -   "
2.33, 71.24027, 0.004048504, NaN, NaN, NaN, 0.03601294, "- N/A -   "
2.37, 72.1838, 0.004117923, NaN, NaN, NaN, 0.0347922, "- N/A -   "
2.41, 73.2454, 0.004184565, NaN, NaN, NaN, 0.0347922, "- N/A -   "
2.45, 74.42485, 0.004253984, NaN, NaN, NaN, 0.0335714, "- N/A -   "
2.49, 75.48638, 0.004323403, NaN, NaN, NaN, 0.0323506, "- N/A -   "
2.53, 76.5479, 0.00439004, NaN, NaN, NaN, 0.0323506, "- N/A -   "
2.57, 77.49149, 0.00445113, NaN, NaN, NaN, 0.0347922, "- N/A -   "
2.61, 78.67096, 0.00451778, NaN, NaN, NaN, 0.0347922, "- N/A -   "
2.65, 79.85043, 0.00459275, NaN, NaN, NaN, 0.0323506, "- N/A -   "
2.69, 80.912, 0.004656613, NaN, NaN, NaN, 0.0323506, "- N/A -   "
2.73, 81.97349, 0.00471492, NaN, NaN, NaN, 0.03601294, "- N/A -   "
2.77, 82.79912, 0.00477324, NaN, NaN, NaN, 0.0396753, "- N/A -   "
2.81, 83.86065, 0.004837102, NaN, NaN, NaN, 0.04089605, "- N/A -   "
2.85, 84.80424, 0.00489819, NaN, NaN, NaN, 0.0433376, "- N/A -   "
2.89, 85.9837, 0.00496206, NaN, NaN, NaN, 0.0445584, "- N/A -   "
2.93, 87.04523, 0.005028697, NaN, NaN, NaN, 0.0445584, "- N/A -   "
2.97, 88.4606, 0.00510645, NaN, NaN, NaN, 0.04089605, "- N/A -   "
3.01, 89.758, 0.005181419, NaN, NaN, NaN, 0.03601294, "- N/A -   "
3.05, 90.9375, 0.005256391, NaN, NaN, NaN, 0.0323506, "- N/A -   "
3.09, 92.35287, 0.005328587, NaN, NaN, NaN, 0.0299091, "- N/A -   "
3.13, 93.2965, 0.00539245, NaN, NaN, NaN, 0.03112983, "- N/A -   "
3.17, 94.1221, 0.00545632, NaN, NaN, NaN, 0.0323506, "- N/A -   "
3.21, 95.5374, 0.00553129, NaN, NaN, NaN, 0.0286883, "- N/A -   "
3.25, 96.71693, 0.00560071, NaN, NaN, NaN, 0.0286883, "- N/A -   "
3.29, 97.6605, 0.005661797, NaN, NaN, NaN, 0.0299091, "- N/A -   "
3.33, 98.72203, 0.00572566, NaN, NaN, NaN, 0.03112983, "- N/A -   "
3.37, 99.7836, 0.005786751, NaN, NaN, NaN, 0.0335714, "- N/A -   "
3.41, 100.6092, 0.005845063, NaN, NaN, NaN, 0.0372337, "- N/A -   "
3.45, 101.435, 0.00590337, NaN, NaN, NaN, 0.04089605, "- N/A -   "
3.49, 102.496, 0.005961686, NaN, NaN, NaN, 0.0445584, "- N/A -   "
3.53, 103.676, 0.006025552, NaN, NaN, NaN, 0.04699994, "- N/A -   "
3.57, 104.855, 0.00609497, NaN, NaN, NaN, 0.04577916, "- N/A -   "
3.61, 106.153, 0.006172719, NaN, NaN, NaN, 0.04089605, "- N/A -   "
3.65, 107.3322, 0.006244915, NaN, NaN, NaN, 0.0384545, "- N/A -   "
3.69, 108.394, 0.00631711, NaN, NaN, NaN, 0.03601294, "- N/A -   "
3.73, 109.5732, 0.00638375, NaN, NaN, NaN, 0.03601294, "- N/A -   "
3.77, 110.635, 0.006455948, NaN, NaN, NaN, 0.0335714, "- N/A -   "
3.81, 111.696, 0.006528144, NaN, NaN, NaN, 0.0323506, "- N/A -   "
3.85, 112.876, 0.006594786, NaN, NaN, NaN, 0.03112983, "- N/A -   "
3.89, 113.937, 0.0066642, NaN, NaN, NaN, 0.0299091, "- N/A -   "
3.929, 114.881, 0.00672807, NaN, NaN, NaN, 0.03112983, "- N/A -   "
3.969, 115.824, 0.006789158, NaN, NaN, NaN, 0.0335714, "- N/A -   "
4.01, 116.886, 0.00685302, NaN, NaN, NaN, 0.03601294, "- N/A -   "
4.05, 117.594, 0.00691134, NaN, NaN, NaN, 0.0384545, "- N/A -   "
4.09, 118.655, 0.0069752, NaN, NaN, NaN, 0.0396753, "- N/A -   "
4.13, 119.599, 0.00703074, NaN, NaN, NaN, 0.0445584, "- N/A -   "
4.17, 120.542, 0.007094601, NaN, NaN, NaN, 0.04577916, "- N/A -   "
4.21, 121.722, 0.00716402, NaN, NaN, NaN, 0.0445584, "- N/A -   "
4.25, 122.783, 0.00723344, NaN, NaN, NaN, 0.0433376, "- N/A -   "
4.29, 123.963, 0.00730286, NaN, NaN, NaN, 0.0433376, "- N/A -   "
4.33, 125.142, 0.00737505, NaN, NaN, NaN, 0.0396753, "- N/A -   "
4.37, 126.44, 0.00745558, NaN, NaN, NaN, 0.0335714, "- N/A -   "
4.41, 127.737, 0.00752777, NaN, NaN, NaN, 0.03112983, "- N/A -   "
4.45, 128.6807, 0.007597193, NaN, NaN, NaN, 0.0299091, "- N/A -   "
4.49, 129.86, 0.007663835, NaN, NaN, NaN, 0.0299091, "- N/A -   "
4.53, 130.922, 0.0077277, NaN, NaN, NaN, 0.03112983, "- N/A -   "
4.57, 131.747, 0.007794343, NaN, NaN, NaN, 0.03112983, "- N/A -   "
4.61, 132.809, 0.007858207, NaN, NaN, NaN, 0.0323506, "- N/A -   "
4.65, 133.87, 0.007919297, NaN, NaN, NaN, 0.0347922, "- N/A -   "
4.69, 134.932, 0.007983162, NaN, NaN, NaN, 0.03601294, "- N/A -   "
4.73, 135.993, 0.008047027, NaN, NaN, NaN, 0.0372337, "- N/A -   "
4.77, 136.819, 0.008108115, NaN, NaN, NaN, 0.0396753, "- N/A -   "
4.81, 137.8806, 0.008169204, NaN, NaN, NaN, 0.04211683, "- N/A -   "
4.85, 138.824, 0.008233069, NaN, NaN, NaN, 0.0433376, "- N/A -   "
4.89, 140.004, 0.008296934, NaN, NaN, NaN, 0.0445584, "- N/A -   "
4.93, 141.065, 0.008366354, NaN, NaN, NaN, 0.0433376, "- N/A -   "
4.97, 142.5985, 0.0084441, NaN, NaN, NaN, 0.0384545, "- N/A -   "
5.01, 143.778, 0.008519075, NaN, NaN, NaN, 0.0347922, "- N/A -   "
5.05, 144.957, 0.008594047, NaN, NaN, NaN, 0.0323506, "- N/A -   "
5.09, 146.137, 0.008663465, NaN, NaN, NaN, 0.0299091, "- N/A -   "
5.13, 147.0805, 0.008721777, NaN, NaN, NaN, 0.0335714, "- N/A -   "
5.17, 148.024, 0.008785643, NaN, NaN, NaN, 0.0347922, "- N/A -   "
5.21, 149.0856, 0.008849508, NaN, NaN, NaN, 0.03601294, "- N/A -   "
5.25, 150.265, 0.008918927, NaN, NaN, NaN, 0.03601294, "- N/A -   "
5.29, 151.5625, 0.008988346, NaN, NaN, NaN, 0.0335714, "- N/A -   "
5.33, 152.742, 0.009054988, NaN, NaN, NaN, 0.0335714, "- N/A -   "
5.37, 153.686, 0.009118853, NaN, NaN, NaN, 0.0347922, "- N/A -   "
5.41, 154.629, 0.009179941, NaN, NaN, NaN, 0.0372337, "- N/A -   "
5.45, 155.691, 0.00924103, NaN, NaN, NaN, 0.0396753, "- N/A -   "
5.49, 156.752, 0.009302119, NaN, NaN, NaN, 0.04211683, "- N/A -   "
5.53, 157.932, 0.009371538, NaN, NaN, NaN, 0.04089605, "- N/A -   "
5.57, 159.111, 0.009438179, NaN, NaN, NaN, 0.04089605, "- N/A -   "
5.61, 160.2906, 0.009507598, NaN, NaN, NaN, 0.0396753, "- N/A -   "
5.65, 161.4701, 0.009582571, NaN, NaN, NaN, 0.0372337, "- N/A -   "
5.69, 162.65, 0.00964921, NaN, NaN, NaN, 0.03601294, "- N/A -   "
5.73, 163.947, 0.009715856, NaN, NaN, NaN, 0.03601294, "- N/A -   "
5.77, 164.891, 0.009779719, NaN, NaN, NaN, 0.0372337, "- N/A -   "
5.81, 166.07, 0.009846362, NaN, NaN, NaN, 0.0372337, "- N/A -   "
5.85, 167.485, 0.009918558, NaN, NaN, NaN, 0.0347922, "- N/A -   "
5.89, 168.665, 0.009987976, NaN, NaN, NaN, 0.0335714, "- N/A -   "
5.93, 169.844, 0.0100602, NaN, NaN, NaN, 0.03112983, "- N/A -   "
5.97, 171.024, 0.0101296, NaN, NaN, NaN, 0.0299091, "- N/A -   "
6.01, 172.085, 0.0101935, NaN, NaN, NaN, 0.03112983, "- N/A -   "
6.05, 173.029, 0.0102518, NaN, NaN, NaN, 0.0347922, "- N/A -   "
6.09, 174.09, 0.0103156, NaN, NaN, NaN, 0.03601294, "- N/A -   "
6.13, 175.27, 0.0103795, NaN, NaN, NaN, 0.0384545, "- N/A -   "
6.14, 175.624, 0.0103934, NaN, NaN, NaN, 0.0384545, "- N/A -   "
6.15, 175.86, 0.01041, NaN, NaN, NaN, 0.0384545, "- N/A -   "
6.16, 176.096, 0.0104267, NaN, NaN, NaN, 0.0384545, "- N/A -   "
6.17, 176.331, 0.0104406, NaN, NaN, NaN, 0.0396753, "- N/A -   "
6.18, 176.6853, 0.01046, NaN, NaN, NaN, 0.0384545, "- N/A -   "
6.19, 177.039, 0.0104767, NaN, NaN, NaN, 0.0384545, "- N/A -   "
6.2, 177.1571, 0.0104933, NaN, NaN, NaN, 0.0384545, "- N/A -   "
6.21, 177.511, 0.01050723, NaN, NaN, NaN, 0.0396753, "- N/A -   "
6.22, 177.747, 0.01052389, NaN, NaN, NaN, 0.0396753, "- N/A -   "
6.23, 178.1007, 0.0105378, NaN, NaN, NaN, 0.04089605, "- N/A -   "
6.24, 178.337, 0.0105544, NaN, NaN, NaN, 0.04089605, "- N/A -   "
6.25, 178.69, 0.0105683, NaN, NaN, NaN, 0.04211683, "- N/A -   "
6.26, 178.926, 0.0105878, NaN, NaN, NaN, 0.04089605, "- N/A -   "
6.27, 179.162, 0.0106016, NaN, NaN, NaN, 0.04211683, "- N/A -   "
6.28, 179.516, 0.0106183, NaN, NaN, NaN, 0.04211683, "- N/A -   "
6.29, 179.634, 0.0106322, NaN, NaN, NaN, 0.0433376, "- N/A -   "
6.3, 180.106, 0.0106461, NaN, NaN, NaN, 0.0445584, "- N/A -   "
6.31, 180.342, 0.0106627, NaN, NaN, NaN, 0.0445584, "- N/A -   "
6.32, 180.578, 0.0106794, NaN, NaN, NaN, 0.0445584, "- N/A -   "
6.33, 180.931, 0.010696, NaN, NaN, NaN, 0.0445584, "- N/A -   "
6.34, 181.167, 0.0107127, NaN, NaN, NaN, 0.0445584, "- N/A -   "
6.35, 181.521, 0.01072937, NaN, NaN, NaN, 0.0445584, "- N/A -   "
6.36, 181.875, 0.0107488, NaN, NaN, NaN, 0.0433376, "- N/A -   "
6.37, 182.229, 0.0107682, NaN, NaN, NaN, 0.04211683, "- N/A -   "
6.38, 182.583, 0.0107877, NaN, NaN, NaN, 0.04089605, "- N/A -   "
6.39, 182.937, 0.0108071, NaN, NaN, NaN, 0.0396753, "- N/A -   "
6.4, 183.29, 0.0108266, NaN, NaN, NaN, 0.0384545, "- N/A -   "
6.41, 183.644, 0.010846, NaN, NaN, NaN, 0.0372337, "- N/A -   "
6.42, 183.998, 0.0108682, NaN, NaN, NaN, 0.03601294, "- N/A -   "
6.43, 184.47, 0.0108876, NaN, NaN, NaN, 0.0335714, "- N/A -   "
6.44, 184.824, 0.0109043, NaN, NaN, NaN, 0.0335714, "- N/A -   "
6.45, 185.06, 0.0109237, NaN, NaN, NaN, 0.0323506, "- N/A -   "
6.46, 185.413, 0.0109404, NaN, NaN, NaN, 0.0323506, "- N/A -   "
6.47, 185.649, 0.0109571, NaN, NaN, NaN, 0.0323506, "- N/A -   "
6.48, 186.003, 0.0109737, NaN, NaN, NaN, 0.0323506, "- N/A -   "
6.49, 186.357, 0.0109904, NaN, NaN, NaN, 0.0323506, "- N/A -   "
6.5, 186.593, 0.0110043, NaN, NaN, NaN, 0.0335714, "- N/A -   "
6.51, 186.829, 0.0110209, NaN, NaN, NaN, 0.0335714, "- N/A -   "
6.52, 187.183, 0.0110376, NaN, NaN, NaN, 0.0335714, "- N/A -   "
6.53, 187.419, 0.0110542, NaN, NaN, NaN, 0.0335714, "- N/A -   "
6.54, 187.772, 0.0110709, NaN, NaN, NaN, 0.0335714, "- N/A -   "
6.55, 188.008, 0.0110876, NaN, NaN, NaN, 0.0335714, "- N/A -   "
6.56, 188.244, 0.0111015, NaN, NaN, NaN, 0.0347922, "- N/A -   "
6.57, 188.598, 0.0111181, NaN, NaN, NaN, 0.0347922, "- N/A -   "
6.58, 188.952, 0.0111348, NaN, NaN, NaN, 0.0347922, "- N/A -   "
6.59, 189.188, 0.0111514, NaN, NaN, NaN, 0.0347922, "- N/A -   "
6.6, 189.5416, 0.0111681, NaN, NaN, NaN, 0.0347922, "- N/A -   "
6.61, 189.777, 0.0111875, NaN, NaN, NaN, 0.0335714, "- N/A -   "
6.62, 190.249, 0.0112042, NaN, NaN, NaN, 0.0335714, "- N/A -   "
6.63, 190.485, 0.0112236, NaN, NaN, NaN, 0.0323506, "- N/A -   "
6.64, 190.839, 0.0112431, NaN, NaN, NaN, 0.03112983, "- N/A -   "
6.65, 191.193, 0.0112625, NaN, NaN, NaN, 0.0299091, "- N/A -   "
6.66, 191.547, 0.0112792, NaN, NaN, NaN, 0.0299091, "- N/A -   "
6.67, 191.901, 0.0112986, NaN, NaN, NaN, 0.0286883, "- N/A -   "
6.68, 192.136, 0.0113153, NaN, NaN, NaN, 0.0286883, "- N/A -   "
6.69, 192.372, 0.0113319, NaN, NaN, NaN, 0.0286883, "- N/A -   "
6.7, 192.726, 0.0113486, NaN, NaN, NaN, 0.0286883, "- N/A -   "
6.71, 193.08, 0.0113652, NaN, NaN, NaN, 0.0286883, "- N/A -   "
6.72, 193.3159, 0.0113791, NaN, NaN, NaN, 0.0299091, "- N/A -   "
6.73, 193.5518, 0.011393, NaN, NaN, NaN, 0.03112983, "- N/A -   "
6.74, 193.906, 0.0114097, NaN, NaN, NaN, 0.03112983, "- N/A -   "
6.75, 194.142, 0.0114236, NaN, NaN, NaN, 0.0323506, "- N/A -   "
6.76, 194.377, 0.0114402, NaN, NaN, NaN, 0.0323506, "- N/A -   "
6.77, 194.495, 0.0114541, NaN, NaN, NaN, 0.0335714, "- N/A -   "
6.78, 194.849, 0.011468, NaN, NaN, NaN, 0.0347922, "- N/A -   "
6.79, 195.085, 0.0114846, NaN, NaN, NaN, 0.03601294, "- N/A -   "
6.8, 195.321, 0.0114985, NaN, NaN, NaN, 0.03601294, "- N/A -   "
[...]
18.96, 653.1897, 0.03177437, NaN, NaN, NaN, 0.0323506, "- N/A -   "
19.04, 656.028, 0.03189655, NaN, NaN, NaN, 0.0372337, "- N/A -   "
19.12, 659.222, 0.0320215, NaN, NaN, NaN, 0.04089605, "- N/A -   "
19.2, 662.8887, 0.03216034, NaN, NaN, NaN, 0.0384545, "- N/A -   "
19.28, 666.2006, 0.0322908, NaN, NaN, NaN, 0.0396753, "- N/A -   "
19.36, 669.749, 0.0324325, NaN, NaN, NaN, 0.0372337, "- N/A -   "
19.44, 673.2974, 0.0325713, NaN, NaN, NaN, 0.0335714, "- N/A -   "
19.52, 676.9642, 0.03271014, NaN, NaN, NaN, 0.03112983, "- N/A -   "
19.6, 680.276, 0.0328434, NaN, NaN, NaN, 0.03112983, "- N/A -   "
19.68, 683.351, 0.0329684, NaN, NaN, NaN, 0.0347922, "- N/A -   "
19.76, 687.018, 0.0331072, NaN, NaN, NaN, 0.0335714, "- N/A -   "
19.84, 689.975, 0.0332266, NaN, NaN, NaN, 0.0384545, "- N/A -   "
19.92, 693.05, 0.03334879, NaN, NaN, NaN, 0.0433376, "- N/A -   "
20, 696.48, 0.0334793, NaN, NaN, NaN, 0.0445584, "- N/A -   "
20.08, 700.6203, 0.0336348, NaN, NaN, NaN, 0.0347922, "- N/A -   "
20.16, 704.0504, 0.03376808, NaN, NaN, NaN, 0.0347922, "- N/A -   "
20.24, 707.3623, 0.0339014, NaN, NaN, NaN, 0.0347922, "- N/A -   "
20.32, 711.266, 0.0340513, NaN, NaN, NaN, 0.0274675, "- N/A -   "
20.4, 714.3409, 0.03417071, NaN, NaN, NaN, 0.0335714, "- N/A -   "
20.48, 717.061, 0.0342846, NaN, NaN, NaN, 0.04211683, "- N/A -   "
20.56, 720.2549, 0.0344067, NaN, NaN, NaN, 0.04699994, "- N/A -   "
20.64, 723.803, 0.0345483, NaN, NaN, NaN, 0.0445584, "- N/A -   "
20.72, 727.8249, 0.0346983, NaN, NaN, NaN, 0.03601294, "- N/A -   "
20.8, 731.6099, 0.03484268, NaN, NaN, NaN, 0.03112983, "- N/A -   "
20.88, 735.1583, 0.0349815, NaN, NaN, NaN, 0.0286883, "- N/A -   "
20.96, 738.588, 0.0351148, NaN, NaN, NaN, 0.0286883, "- N/A -   "
21.04, 741.9003, 0.03523976, NaN, NaN, NaN, 0.0323506, "- N/A -   "
21.12, 744.857, 0.0353564, NaN, NaN, NaN, 0.0396753, "- N/A -   "
21.2, 748.0509, 0.0354841, NaN, NaN, NaN, 0.04211683, "- N/A -   "
21.28, 751.5993, 0.0356146, NaN, NaN, NaN, 0.0433376, "- N/A -   "
21.36, 755.0295, 0.03575068, NaN, NaN, NaN, 0.04211683, "- N/A -   "
21.44, 759.1693, 0.0359034, NaN, NaN, NaN, 0.0335714, "- N/A -   "
21.52, 762.836, 0.0360478, NaN, NaN, NaN, 0.0286883, "- N/A -   "
21.6, 766.0296, 0.0361727, NaN, NaN, NaN, 0.0323506, "- N/A -   "
21.68, 769.4597, 0.0362977, NaN, NaN, NaN, 0.0372337, "- N/A -   "
21.76, 772.6533, 0.03642543, NaN, NaN, NaN, 0.0396753, "- N/A -   "
21.84, 776.0835, 0.03655594, NaN, NaN, NaN, 0.04089605, "- N/A -   "
21.92, 779.277, 0.0366781, NaN, NaN, NaN, 0.04577916, "- N/A -   "
22, 782.7072, 0.0368142, NaN, NaN, NaN, 0.0445584, "- N/A -   "
22.08, 786.965, 0.0369697, NaN, NaN, NaN, 0.0347922, "- N/A -   "
22.16, 790.8685, 0.03711962, NaN, NaN, NaN, 0.0274675, "- N/A -   "
22.24, 793.9439, 0.03723902, NaN, NaN, NaN, 0.0335714, "- N/A -   "
22.32, 797.4923, 0.0373723, NaN, NaN, NaN, 0.0335714, "- N/A -   "
22.4, 800.9224, 0.03750559, NaN, NaN, NaN, 0.0335714, "- N/A -   "
22.48, 803.998, 0.0376278, NaN, NaN, NaN, 0.0384545, "- N/A -   "
22.56, 807.191, 0.0377527, NaN, NaN, NaN, 0.04211683, "- N/A -   "
22.64, 810.74, 0.037886, NaN, NaN, NaN, 0.04211683, "- N/A -   "
22.72, 814.288, 0.0380276, NaN, NaN, NaN, 0.0396753, "- N/A -   "
22.8, 817.9549, 0.0381581, NaN, NaN, NaN, 0.0396753, "- N/A -   "
22.88, 821.6216, 0.03829974, NaN, NaN, NaN, 0.03601294, "- N/A -   "
22.96, 825.0517, 0.038433, NaN, NaN, NaN, 0.03601294, "- N/A -   "
23.04, 828.6, 0.0385691, NaN, NaN, NaN, 0.0347922, "- N/A -   "
23.12, 832.0303, 0.0387051, NaN, NaN, NaN, 0.0347922, "- N/A -   "
23.2, 835.342, 0.0388329, NaN, NaN, NaN, 0.03601294, "- N/A -   "
23.28, 838.536, 0.03895783, NaN, NaN, NaN, 0.0396753, "- N/A -   "
23.36, 841.7294, 0.0390772, NaN, NaN, NaN, 0.04577916, "- N/A -   "
23.44, 845.5143, 0.0392244, NaN, NaN, NaN, 0.0396753, "- N/A -   "
23.52, 849.6542, 0.0393771, NaN, NaN, NaN, 0.03112983, "- N/A -   "
23.6, 852.966, 0.0395104, NaN, NaN, NaN, 0.0323506, "- N/A -   "
23.68, 856.514, 0.0396437, NaN, NaN, NaN, 0.03112983, "- N/A -   "
23.76, 860.063, 0.0397742, NaN, NaN, NaN, 0.0323506, "- N/A -   "
23.84, 863.2565, 0.0398991, NaN, NaN, NaN, 0.03601294, "- N/A -   "
23.92, 866.213, 0.04001577, NaN, NaN, NaN, 0.0433376, "- N/A -   "
24, 869.5254, 0.0401407, NaN, NaN, NaN, 0.04699994, "- N/A -   "
24.08, 873.4286, 0.0402934, NaN, NaN, NaN, 0.0384545, "- N/A -   "
24.16, 877.214, 0.04043506, NaN, NaN, NaN, 0.03601294, "- N/A -   "
24.24, 880.644, 0.0405656, NaN, NaN, NaN, 0.03601294, "- N/A -   "
24.32, 884.547, 0.0407127, NaN, NaN, NaN, 0.0299091, "- N/A -   "
24.4, 887.9772, 0.0408432, NaN, NaN, NaN, 0.03112983, "- N/A -   "
24.48, 891.1707, 0.0409682, NaN, NaN, NaN, 0.0347922, "- N/A -   "
24.56, 894.009, 0.0410876, NaN, NaN, NaN, 0.04089605, "- N/A -   "
24.64, 897.558, 0.0412153, NaN, NaN, NaN, 0.0433376, "- N/A -   "
24.72, 900.9881, 0.04134861, NaN, NaN, NaN, 0.0433376, "- N/A -   "
24.8, 904.8913, 0.0414958, NaN, NaN, NaN, 0.0372337, "- N/A -   "
24.88, 909.0312, 0.0416513, NaN, NaN, NaN, 0.0274675, "- N/A -   "
24.96, 912.4613, 0.0417846, NaN, NaN, NaN, 0.0274675, "- N/A -   "
25.04, 915.655, 0.04190396, NaN, NaN, NaN, 0.0335714, "- N/A -   "
25.12, 918.848, 0.0420317, NaN, NaN, NaN, 0.03601294, "- N/A -   "
25.2, 922.3969, 0.042165, NaN, NaN, NaN, 0.03601294, "- N/A -   "
25.28, 925.3539, 0.0422816, NaN, NaN, NaN, 0.0433376, "- N/A -   "
25.36, 928.784, 0.0424093, NaN, NaN, NaN, 0.04577916, "- N/A -   "
25.44, 932.6873, 0.0425565, NaN, NaN, NaN, 0.0396753, "- N/A -   "
25.52, 936.8271, 0.04270922, NaN, NaN, NaN, 0.03112983, "- N/A -   "
25.6, 940.021, 0.0428342, NaN, NaN, NaN, 0.0347922, "- N/A -   "
25.68, 943.3326, 0.0429619, NaN, NaN, NaN, 0.0372337, "- N/A -   "
25.76, 947.236, 0.0431063, NaN, NaN, NaN, 0.0323506, "- N/A -   "
25.84, 950.7843, 0.04323958, NaN, NaN, NaN, 0.0323506, "- N/A -   "
25.92, 953.741, 0.0433562, NaN, NaN, NaN, 0.0396753, "- N/A -   "
26, 957.29, 0.04349226, NaN, NaN, NaN, 0.0384545, "- N/A -   "
26.08, 960.9565, 0.0436283, NaN, NaN, NaN, 0.0372337, "- N/A -   "
26.16, 964.5049, 0.0437616, NaN, NaN, NaN, 0.0384545, "- N/A -   "
26.24, 968.0533, 0.04389767, NaN, NaN, NaN, 0.0372337, "- N/A -   "
26.32, 971.72, 0.0440393, NaN, NaN, NaN, 0.0335714, "- N/A -   "
26.4, 975.15, 0.0441698, NaN, NaN, NaN, 0.0347922, "- N/A -   "
26.48, 978.817, 0.0443059, NaN, NaN, NaN, 0.0335714, "- N/A -   "
26.56, 982.4836, 0.0444447, NaN, NaN, NaN, 0.03112983, "- N/A -   "
26.64, 985.6771, 0.0445669, NaN, NaN, NaN, 0.03601294, "- N/A -   "
26.72, 988.752, 0.0446863, NaN, NaN, NaN, 0.04211683, "- N/A -   "
26.8, 991.946, 0.04480844, NaN, NaN, NaN, 0.04699994, "- N/A -   "
26.88, 995.8493, 0.04495561, NaN, NaN, NaN, 0.04089605, "- N/A -   "
26.96, 999.3977, 0.0450889, NaN, NaN, NaN, 0.04089605, "- N/A -   "
27.04, 1003.3, 0.04523051, NaN, NaN, NaN, 0.0372337, "- N/A -   "
27.12, 1007.32, 0.04538323, NaN, NaN, NaN, 0.0286883, "- N/A -   "
27.2, 1010.75, 0.0455137, NaN, NaN, NaN, 0.0299091, "- N/A -   "
27.28, 1013.954, 0.0456331, NaN, NaN, NaN, 0.03601294, "- N/A -   "
27.36, 1016.94, 0.045747, NaN, NaN, NaN, 0.0445584, "- N/A -   "
27.44, 1020.39, 0.04587749, NaN, NaN, NaN, 0.04699994, "- N/A -   "
27.52, 1024.45, 0.0460274, NaN, NaN, NaN, 0.0384545, "- N/A -   "
27.6, 1028.38, 0.04617183, NaN, NaN, NaN, 0.0335714, "- N/A -   "
27.68, 1032.2, 0.0463134, NaN, NaN, NaN, 0.0299091, "- N/A -   "
27.76, 1035.9, 0.0464495, NaN, NaN, NaN, 0.0286883, "- N/A -   "
27.84, 1039.24, 0.0465772, NaN, NaN, NaN, 0.03112983, "- N/A -   "
27.92, 1042.22, 0.0466911, NaN, NaN, NaN, 0.0396753, "- N/A -   "
28, 1045.32, 0.04681326, NaN, NaN, NaN, 0.0445584, "- N/A -   "
28.08, 1048.89, 0.0469438, NaN, NaN, NaN, 0.04577916, "- N/A -   "
28.16, 1052.71, 0.0470826, NaN, NaN, NaN, 0.0433376, "- N/A -   "
28.24, 1056.77, 0.0472353, NaN, NaN, NaN, 0.0347922, "- N/A -   "
28.32, 1060.7, 0.0473797, NaN, NaN, NaN, 0.0299091, "- N/A -   "
28.4, 1064.04, 0.0475074, NaN, NaN, NaN, 0.0323506, "- N/A -   "
28.48, 1067.62, 0.0476352, NaN, NaN, NaN, 0.0347922, "- N/A -   "
28.56, 1070.718, 0.0477574, NaN, NaN, NaN, 0.0396753, "- N/A -   "
28.64, 1074.18, 0.04788786, NaN, NaN, NaN, 0.04089605, "- N/A -   "
28.72, 1077.75, 0.04801559, NaN, NaN, NaN, 0.0433376, "- N/A -   "
28.8, 1081.33, 0.04815165, NaN, NaN, NaN, 0.04211683, "- N/A -   "
28.88, 1085.62, 0.0483099, NaN, NaN, NaN, 0.03112983, "- N/A -   "
28.96, 1089.32, 0.0484488, NaN, NaN, NaN, 0.0286883, "- N/A -   "
29.04, 1092.42, 0.0485682, NaN, NaN, NaN, 0.0347922, "- N/A -   "
29.12, 1096.12, 0.0487014, NaN, NaN, NaN, 0.0347922, "- N/A -   "
29.2, 1099.93, 0.0488403, NaN, NaN, NaN, 0.0323506, "- N/A -   "
29.251, 1101.96, 0.0489208, NaN, NaN, NaN, 0.0347922, "- N/A -   "