File: 2_Tensile_Data/Hamel_ForceTest_Bolt9_Test3.csv
Time, Load (lb), Position (in), AxialStrain (in), TransverseStrain (in), Auxiliary (), Control Out (V), Stress (psi)
0.0, 1.17947, 0.0, NaN, NaN, NaN, 0.108039, "- N/A -   "
0.01, 1.41537, 3.054427E-5, NaN, NaN, NaN, 0.101935, "- N/A -   "
0.02, 1.65126, 5.5535e-05, NaN, NaN, NaN, 0.09705182, "- N/A -   "
0.03, 1.88716, 8.607931E-5, NaN, NaN, NaN, 0.09216871, "- N/A -   "
0.04, 2.005107, 0.00011107, NaN, NaN, NaN, 0.0872856, "- N/A -   "
0.05, 2.12305, 1.388376E-4, NaN, NaN, NaN, 0.08362327, "- N/A -   "
0.06, 2.35895, 0.000166605, NaN, NaN, NaN, 0.07874016, "- N/A -   "
0.07, 2.476897, 0.000191596, NaN, NaN, NaN, 0.07385705, "- N/A -   "
0.08, 2.712792, 0.000216587, NaN, NaN, NaN, 0.0701947, "- N/A -   "
0.09, 2.83074, 2.415774E-4, NaN, NaN, NaN, 0.06653238, "- N/A -   "
0.1, 3.06663, 0.000263791, NaN, NaN, NaN, 0.0640908, "- N/A -   "
0.11, 3.18458, 0.000286005, NaN, NaN, NaN, 0.06164927, "- N/A -   "
0.12, 3.42048, 3.109962E-4, NaN, NaN, NaN, 0.0592077, "- N/A -   "
0.13, 3.53842, 0.00033321, NaN, NaN, NaN, 0.0555454, "- N/A -   "
0.14, 3.65637, 0.000355424, NaN, NaN, NaN, 0.0531038, "- N/A -   "
0.15, 3.89227, 0.000377638, NaN, NaN, NaN, 0.05066227, "- N/A -   "
0.16, 3.89227, 0.000399852, NaN, NaN, NaN, 0.0482207, "- N/A -   "
0.17, 4.12816, 0.000422066, NaN, NaN, NaN, 0.04577916, "- N/A -   "
0.18, 4.36406, 0.000441504, NaN, NaN, NaN, 0.0445584, "- N/A -   "
0.19, 4.36406, 4.609408E-4, NaN, NaN, NaN, 0.0433376, "- N/A -   "
0.2, 4.59995, 4.831548E-4, NaN, NaN, NaN, 0.04089605, "- N/A -   "
0.21, 4.59995, 0.000502592, NaN, NaN, NaN, 0.0396753, "- N/A -   "
0.22, 4.83585, 5.248061E-4, NaN, NaN, NaN, 0.0372337, "- N/A -   "
0.23, 4.953794, 5.442434E-4, NaN, NaN, NaN, 0.03601294, "- N/A -   "
0.24, 5.18969, 5.636806E-4, NaN, NaN, NaN, 0.0347922, "- N/A -   "
0.25, 5.307636, 5.831179E-4, NaN, NaN, NaN, 0.0335714, "- N/A -   "
0.26, 5.425584, 0.000602555, NaN, NaN, NaN, 0.0335714, "- N/A -   "
0.27, 5.54353, 0.000619216, NaN, NaN, NaN, 0.0323506, "- N/A -   "
0.28, 5.54353, 0.000638653, NaN, NaN, NaN, 0.03112983, "- N/A -   "
0.29, 5.779426, 0.000655313, NaN, NaN, NaN, 0.03112983, "- N/A -   "
0.3, 5.779426, 6.719739E-4, NaN, NaN, NaN, 0.03112983, "- N/A -   "
0.31, 6.01532, 0.000688634, NaN, NaN, NaN, 0.03112983, "- N/A -   "
0.32, 6.01532, 7.080717E-4, NaN, NaN, NaN, 0.03112983, "- N/A -   "
0.33, 6.13327, 0.000724732, NaN, NaN, NaN, 0.0299091, "- N/A -   "
0.34, 6.369163, 7.413927E-4, NaN, NaN, NaN, 0.0299091, "- N/A -   "
0.35, 6.369163, 0.000758053, NaN, NaN, NaN, 0.0299091, "- N/A -   "
0.36, 6.487111, 0.000774714, NaN, NaN, NaN, 0.03112983, "- N/A -   "
0.37, 6.60506, 7.885975E-4, NaN, NaN, NaN, 0.03112983, "- N/A -   "
0.38, 6.723006, 0.000802481, NaN, NaN, NaN, 0.0323506, "- N/A -   "
0.39, 6.84095, 8.191418E-4, NaN, NaN, NaN, 0.0323506, "- N/A -   "
0.4, 6.9589, 8.358023E-4, NaN, NaN, NaN, 0.0335714, "- N/A -   "
0.41, 7.07685, 0.000849686, NaN, NaN, NaN, 0.0335714, "- N/A -   "
0.42, 7.1948, 8.635698E-4, NaN, NaN, NaN, 0.0347922, "- N/A -   "
0.43, 7.312743, 0.00088023, NaN, NaN, NaN, 0.0347922, "- N/A -   "
0.48, 7.90248, 0.000957979, NaN, NaN, NaN, 0.0384545, "- N/A -   "
0.53, 8.492218, 0.0010274, NaN, NaN, NaN, 0.0433376, "- N/A -   "
0.58, 9.199903, 0.00110515, NaN, NaN, NaN, 0.04577916, "- N/A -   "
0.63, 9.907588, 0.00119123, NaN, NaN, NaN, 0.04577916, "- N/A -   "
0.68, 10.73322, 0.00126898, NaN, NaN, NaN, 0.04699994, "- N/A -   "
0.73, 11.6768, 0.00135783, NaN, NaN, NaN, 0.0445584, "- N/A -   "
0.78, 12.6204, 0.00145779, NaN, NaN, NaN, 0.0372337, "- N/A -   "
0.83, 13.6819, 0.00155776, NaN, NaN, NaN, 0.03112983, "- N/A -   "
0.88, 14.6255, 0.00164106, NaN, NaN, NaN, 0.0299091, "- N/A -   "
0.93, 15.687, 0.00172436, NaN, NaN, NaN, 0.0299091, "- N/A -   "
0.98, 16.5126, 0.001802112, NaN, NaN, NaN, 0.0323506, "- N/A -   "
1.03, 17.6921, 0.001879861, NaN, NaN, NaN, 0.0347922, "- N/A -   "
1.08, 18.7536, 0.00195483, NaN, NaN, NaN, 0.0384545, "- N/A -   "
1.13, 19.9331, 0.00204369, NaN, NaN, NaN, 0.03601294, "- N/A -   "
1.18, 21.2305, 0.00212422, NaN, NaN, NaN, 0.0372337, "- N/A -   "
1.23, 22.29207, 0.00219641, NaN, NaN, NaN, 0.04211683, "- N/A -   "
1.28, 23.3536, 0.00227694, NaN, NaN, NaN, 0.0445584, "- N/A -   "
1.33, 24.769, 0.00235746, NaN, NaN, NaN, 0.0445584, "- N/A -   "
1.38, 26.4202, 0.0024602, NaN, NaN, NaN, 0.03601294, "- N/A -   "
1.43, 27.7177, 0.00255183, NaN, NaN, NaN, 0.0323506, "- N/A -   "
1.48, 29.133, 0.002640691, NaN, NaN, NaN, 0.03112983, "- N/A -   "
1.53, 30.3125, 0.00272122, NaN, NaN, NaN, 0.03112983, "- N/A -   "
1.58, 31.6099, 0.002798966, NaN, NaN, NaN, 0.0335714, "- N/A -   "
1.63, 32.7894, 0.00287671, NaN, NaN, NaN, 0.03601294, "- N/A -   "
1.68, 34.08682, 0.00296002, NaN, NaN, NaN, 0.03601294, "- N/A -   "
1.73, 35.7381, 0.00305165, NaN, NaN, NaN, 0.0323506, "- N/A -   "
1.78, 36.9176, 0.00313218, NaN, NaN, NaN, 0.0347922, "- N/A -   "
1.83, 38.3329, 0.003209925, NaN, NaN, NaN, 0.03601294, "- N/A -   "
1.88, 39.5124, 0.0032849, NaN, NaN, NaN, 0.0396753, "- N/A -   "
1.93, 40.8098, 0.00336542, NaN, NaN, NaN, 0.04211683, "- N/A -   "
1.98, 42.3431, 0.0034515, NaN, NaN, NaN, 0.0396753, "- N/A -   "
2.03, 43.75851, 0.003537582, NaN, NaN, NaN, 0.0384545, "- N/A -   "
2.08, 45.29183, 0.00362366, NaN, NaN, NaN, 0.0372337, "- N/A -   "
2.13, 46.7072, 0.00370974, NaN, NaN, NaN, 0.03601294, "- N/A -   "
2.18, 48.12257, 0.00379304, NaN, NaN, NaN, 0.03601294, "- N/A -   "
2.23, 49.7738, 0.00387912, NaN, NaN, NaN, 0.0347922, "- N/A -   "
2.28, 51.4251, 0.00396798, NaN, NaN, NaN, 0.0323506, "- N/A -   "
2.33, 52.72252, 0.00405128, NaN, NaN, NaN, 0.0335714, "- N/A -   "
2.38, 54.13789, 0.00412903, NaN, NaN, NaN, 0.0347922, "- N/A -   "
2.43, 55.55326, 0.00421233, NaN, NaN, NaN, 0.03601294, "- N/A -   "
2.48, 57.08658, 0.004295635, NaN, NaN, NaN, 0.03601294, "- N/A -   "
2.53, 58.8558, 0.004381715, NaN, NaN, NaN, 0.0347922, "- N/A -   "
2.58, 60.15321, 0.004456687, NaN, NaN, NaN, 0.0372337, "- N/A -   "
2.63, 61.56858, 0.00453721, NaN, NaN, NaN, 0.0384545, "- N/A -   "
2.68, 62.98395, 0.004614962, NaN, NaN, NaN, 0.04089605, "- N/A -   "
2.73, 64.6352, 0.004698264, NaN, NaN, NaN, 0.04089605, "- N/A -   "
2.78, 66.40443, 0.00478712, NaN, NaN, NaN, 0.0384545, "- N/A -   "
2.83, 68.05569, 0.004878753, NaN, NaN, NaN, 0.0347922, "- N/A -   "
2.88, 69.707, 0.004967609, NaN, NaN, NaN, 0.0335714, "- N/A -   "
2.93, 71.3582, 0.005050912, NaN, NaN, NaN, 0.0323506, "- N/A -   "
2.98, 72.89154, 0.005134214, NaN, NaN, NaN, 0.0335714, "- N/A -   "
3.03, 74.42485, 0.00521752, NaN, NaN, NaN, 0.0323506, "- N/A -   "
3.08, 76.07612, 0.005303596, NaN, NaN, NaN, 0.03112983, "- N/A -   "
3.13, 77.72738, 0.00538968, NaN, NaN, NaN, 0.03112983, "- N/A -   "
3.18, 79.2607, 0.0054702, NaN, NaN, NaN, 0.03112983, "- N/A -   "
3.23, 80.55813, 0.00554517, NaN, NaN, NaN, 0.03601294, "- N/A -   "
3.28, 81.97349, 0.00561182, NaN, NaN, NaN, 0.04211683, "- N/A -   "
3.33, 83.38886, 0.00568401, NaN, NaN, NaN, 0.04699994, "- N/A -   "
3.38, 85.15807, 0.00577287, NaN, NaN, NaN, 0.04577916, "- N/A -   "
3.43, 86.92729, 0.0058645, NaN, NaN, NaN, 0.04089605, "- N/A -   "
3.48, 88.8144, 0.00596169, NaN, NaN, NaN, 0.03601294, "- N/A -   "
3.53, 90.4657, 0.00604777, NaN, NaN, NaN, 0.03601294, "- N/A -   "
3.58, 92.23492, 0.006131068, NaN, NaN, NaN, 0.0347922, "- N/A -   "
3.63, 94.1221, 0.006222701, NaN, NaN, NaN, 0.03112983, "- N/A -   "
3.68, 95.8913, 0.00630878, NaN, NaN, NaN, 0.0299091, "- N/A -   "
3.73, 97.54256, 0.006392083, NaN, NaN, NaN, 0.03112983, "- N/A -   "
3.78, 99.1938, 0.006472609, NaN, NaN, NaN, 0.03112983, "- N/A -   "
3.83, 100.727, 0.006547581, NaN, NaN, NaN, 0.0347922, "- N/A -   "
3.88, 102.143, 0.006617, NaN, NaN, NaN, 0.04089605, "- N/A -   "
3.93, 103.44, 0.006689195, NaN, NaN, NaN, 0.04577916, "- N/A -   "
3.98, 105.209, 0.00676972, NaN, NaN, NaN, 0.04699994, "- N/A -   "
4.03, 107.0963, 0.006861354, NaN, NaN, NaN, 0.0433376, "- N/A -   "
4.08, 108.748, 0.00694188, NaN, NaN, NaN, 0.0445584, "- N/A -   "
4.13, 110.635, 0.00703351, NaN, NaN, NaN, 0.04211683, "- N/A -   "
4.18, 112.758, 0.00712792, NaN, NaN, NaN, 0.03601294, "- N/A -   "
4.23, 114.645, 0.00722511, NaN, NaN, NaN, 0.03112983, "- N/A -   "
4.28, 116.414, 0.00730841, NaN, NaN, NaN, 0.0299091, "- N/A -   "
4.33, 118.183, 0.00739449, NaN, NaN, NaN, 0.0299091, "- N/A -   "
4.38, 119.599, 0.00746946, NaN, NaN, NaN, 0.0323506, "- N/A -   "
4.43, 121.25, 0.00754999, NaN, NaN, NaN, 0.0347922, "- N/A -   "
4.48, 122.783, 0.00763051, NaN, NaN, NaN, 0.03601294, "- N/A -   "
4.53, 124.317, 0.00770826, NaN, NaN, NaN, 0.0372337, "- N/A -   "
4.58, 125.9679, 0.00779157, NaN, NaN, NaN, 0.0372337, "- N/A -   "
4.63, 127.383, 0.007863762, NaN, NaN, NaN, 0.04211683, "- N/A -   "
4.68, 128.799, 0.00794151, NaN, NaN, NaN, 0.0445584, "- N/A -   "
4.73, 130.332, 0.008024813, NaN, NaN, NaN, 0.04577916, "- N/A -   "
4.78, 132.219, 0.008113669, NaN, NaN, NaN, 0.04211683, "- N/A -   "
4.83, 133.988, 0.008210856, NaN, NaN, NaN, 0.03601294, "- N/A -   "
4.88, 135.758, 0.008305265, NaN, NaN, NaN, 0.03112983, "- N/A -   "
4.93, 137.291, 0.008391344, NaN, NaN, NaN, 0.03112983, "- N/A -   "
4.98, 138.706, 0.00846354, NaN, NaN, NaN, 0.0347922, "- N/A -   "
5.03, 140.004, 0.008544065, NaN, NaN, NaN, 0.0372337, "- N/A -   "
5.08, 141.773, 0.008630145, NaN, NaN, NaN, 0.0347922, "- N/A -   "
5.13, 143.542, 0.008719001, NaN, NaN, NaN, 0.0323506, "- N/A -   "
5.18, 144.957, 0.008799527, NaN, NaN, NaN, 0.0335714, "- N/A -   "
5.23, 146.255, 0.00887728, NaN, NaN, NaN, 0.0372337, "- N/A -   "
5.28, 147.434, 0.008946694, NaN, NaN, NaN, 0.04211683, "- N/A -   "
5.33, 148.968, 0.00902722, NaN, NaN, NaN, 0.0433376, "- N/A -   "
5.38, 150.737, 0.009116077, NaN, NaN, NaN, 0.04089605, "- N/A -   "
5.43, 152.27, 0.009202156, NaN, NaN, NaN, 0.0396753, "- N/A -   "
5.48, 153.8035, 0.009291012, NaN, NaN, NaN, 0.0372337, "- N/A -   "
5.53, 155.573, 0.009379867, NaN, NaN, NaN, 0.0347922, "- N/A -   "
5.58, 156.988, 0.009463171, NaN, NaN, NaN, 0.0347922, "- N/A -   "
5.63, 158.2855, 0.009540919, NaN, NaN, NaN, 0.0372337, "- N/A -   "
5.68, 160.055, 0.009629775, NaN, NaN, NaN, 0.03601294, "- N/A -   "
5.73, 161.588, 0.00971863, NaN, NaN, NaN, 0.0323506, "- N/A -   "
5.78, 163.121, 0.00980193, NaN, NaN, NaN, 0.0323506, "- N/A -   "
5.83, 164.537, 0.009882459, NaN, NaN, NaN, 0.0347922, "- N/A -   "
5.88, 165.952, 0.009962985, NaN, NaN, NaN, 0.0347922, "- N/A -   "
5.93, 167.603, 0.0100518, NaN, NaN, NaN, 0.0323506, "- N/A -   "
5.98, 168.901, 0.0101268, NaN, NaN, NaN, 0.03601294, "- N/A -   "
6.03, 170.1982, 0.0102046, NaN, NaN, NaN, 0.0384545, "- N/A -   "
6.08, 171.614, 0.0102823, NaN, NaN, NaN, 0.04211683, "- N/A -   "
6.13, 173.029, 0.0103545, NaN, NaN, NaN, 0.04577916, "- N/A -   "
6.18, 174.562, 0.0104406, NaN, NaN, NaN, 0.0445584, "- N/A -   "
6.23, 176.331, 0.0105378, NaN, NaN, NaN, 0.0384545, "- N/A -   "
6.28, 177.983, 0.0106322, NaN, NaN, NaN, 0.0335714, "- N/A -   "
6.33, 179.634, 0.0107155, NaN, NaN, NaN, 0.0335714, "- N/A -   "
6.38, 181.049, 0.0107988, NaN, NaN, NaN, 0.0347922, "- N/A -   "
6.43, 182.583, 0.01088209, NaN, NaN, NaN, 0.0335714, "- N/A -   "
6.48, 184.3519, 0.0109765, NaN, NaN, NaN, 0.0286883, "- N/A -   "
6.53, 185.885, 0.0110626, NaN, NaN, NaN, 0.0274675, "- N/A -   "
6.58, 187.183, 0.0111348, NaN, NaN, NaN, 0.0323506, "- N/A -   "
6.63, 188.598, 0.01120697, NaN, NaN, NaN, 0.0372337, "- N/A -   "
6.68, 189.777, 0.0112792, NaN, NaN, NaN, 0.04211683, "- N/A -   "
6.73, 191.075, 0.0113514, NaN, NaN, NaN, 0.04699994, "- N/A -   "
6.78, 192.608, 0.0114347, NaN, NaN, NaN, 0.04699994, "- N/A -   "
6.83, 194.377, 0.0115263, NaN, NaN, NaN, 0.0433376, "- N/A -   "
6.88, 196.383, 0.0116235, NaN, NaN, NaN, 0.0372337, "- N/A -   "
6.93, 198.152, 0.0117179, NaN, NaN, NaN, 0.0323506, "- N/A -   "
6.98, 199.685, 0.011804, NaN, NaN, NaN, 0.0323506, "- N/A -   "
7.03, 201.336, 0.0118873, NaN, NaN, NaN, 0.03112983, "- N/A -   "
7.08, 203.106, 0.0119789, NaN, NaN, NaN, 0.0274675, "- N/A -   "
7.13, 204.521, 0.0120678, NaN, NaN, NaN, 0.0262467, "- N/A -   "
7.18, 205.936, 0.0121427, NaN, NaN, NaN, 0.0286883, "- N/A -   "
7.23, 207.352, 0.0122149, NaN, NaN, NaN, 0.0347922, "- N/A -   "
7.28, 208.649, 0.01228435, NaN, NaN, NaN, 0.0396753, "- N/A -   "
7.33, 209.946, 0.0123621, NaN, NaN, NaN, 0.0433376, "- N/A -   "
7.34, 210.3, 0.012376, NaN, NaN, NaN, 0.0433376, "- N/A -   "
7.35, 210.536, 0.0123926, NaN, NaN, NaN, 0.0445584, "- N/A -   "
7.36, 210.89, 0.0124065, NaN, NaN, NaN, 0.0445584, "- N/A -   "
7.37, 211.126, 0.012426, NaN, NaN, NaN, 0.0433376, "- N/A -   "
7.38, 211.598, 0.0124426, NaN, NaN, NaN, 0.0433376, "- N/A -   "
7.39, 211.9516, 0.0124593, NaN, NaN, NaN, 0.0433376, "- N/A -   "
7.4, 212.1875, 0.0124759, NaN, NaN, NaN, 0.0433376, "- N/A -   "
7.41, 212.4234, 0.0124926, NaN, NaN, NaN, 0.0445584, "- N/A -   "
7.42, 212.777, 0.0125093, NaN, NaN, NaN, 0.0433376, "- N/A -   "
7.43, 213.249, 0.0125259, NaN, NaN, NaN, 0.0433376, "- N/A -   "
7.44, 213.485, 0.0125426, NaN, NaN, NaN, 0.0433376, "- N/A -   "
7.45, 213.839, 0.0125592, NaN, NaN, NaN, 0.0433376, "- N/A -   "
7.46, 213.957, 0.0125759, NaN, NaN, NaN, 0.0433376, "- N/A -   "
7.47, 214.311, 0.0125926, NaN, NaN, NaN, 0.0433376, "- N/A -   "
7.48, 214.782, 0.01260923, NaN, NaN, NaN, 0.0445584, "- N/A -   "
7.49, 215.136, 0.0126287, NaN, NaN, NaN, 0.0433376, "- N/A -   "
7.5, 215.372, 0.0126453, NaN, NaN, NaN, 0.04211683, "- N/A -   "
7.51, 215.726, 0.012662, NaN, NaN, NaN, 0.04211683, "- N/A -   "
7.52, 216.08, 0.0126814, NaN, NaN, NaN, 0.04089605, "- N/A -   "
7.53, 216.434, 0.0127009, NaN, NaN, NaN, 0.04089605, "- N/A -   "
7.54, 216.905, 0.0127203, NaN, NaN, NaN, 0.0384545, "- N/A -   "
7.55, 217.259, 0.01273696, NaN, NaN, NaN, 0.0384545, "- N/A -   "
7.56, 217.613, 0.0127564, NaN, NaN, NaN, 0.0372337, "- N/A -   "
7.57, 217.967, 0.0127758, NaN, NaN, NaN, 0.0372337, "- N/A -   "
7.58, 218.321, 0.0127925, NaN, NaN, NaN, 0.03601294, "- N/A -   "
7.59, 218.6746, 0.0128119, NaN, NaN, NaN, 0.03601294, "- N/A -   "
7.6, 218.9105, 0.0128286, NaN, NaN, NaN, 0.0347922, "- N/A -   "
7.61, 219.3823, 0.012848, NaN, NaN, NaN, 0.0335714, "- N/A -   "
7.62, 219.736, 0.0128702, NaN, NaN, NaN, 0.0323506, "- N/A -   "
7.63, 220.208, 0.0128897, NaN, NaN, NaN, 0.03112983, "- N/A -   "
7.64, 220.562, 0.0129091, NaN, NaN, NaN, 0.0299091, "- N/A -   "
7.65, 220.798, 0.0129258, NaN, NaN, NaN, 0.0286883, "- N/A -   "
7.66, 221.269, 0.0129452, NaN, NaN, NaN, 0.0286883, "- N/A -   "
7.67, 221.505, 0.0129591, NaN, NaN, NaN, 0.0286883, "- N/A -   "
7.68, 221.859, 0.0129785, NaN, NaN, NaN, 0.0274675, "- N/A -   "
7.69, 222.213, 0.0129952, NaN, NaN, NaN, 0.0274675, "- N/A -   "
7.7, 222.449, 0.0130091, NaN, NaN, NaN, 0.0286883, "- N/A -   "
7.71, 222.803, 0.0130285, NaN, NaN, NaN, 0.0286883, "- N/A -   "
7.72, 223.039, 0.0130424, NaN, NaN, NaN, 0.0299091, "- N/A -   "
7.73, 223.3925, 0.0130591, NaN, NaN, NaN, 0.0299091, "- N/A -   "
7.74, 223.746, 0.0130757, NaN, NaN, NaN, 0.0286883, "- N/A -   "
7.75, 223.982, 0.0130924, NaN, NaN, NaN, 0.0286883, "- N/A -   "
7.76, 224.336, 0.013109, NaN, NaN, NaN, 0.0286883, "- N/A -   "
7.77, 224.69, 0.0131257, NaN, NaN, NaN, 0.0299091, "- N/A -   "
7.78, 224.926, 0.0131424, NaN, NaN, NaN, 0.0286883, "- N/A -   "
7.79, 225.398, 0.01315625, NaN, NaN, NaN, 0.0299091, "- N/A -   "
7.8, 225.6335, 0.0131729, NaN, NaN, NaN, 0.0299091, "- N/A -   "
7.81, 225.8694, 0.0131868, NaN, NaN, NaN, 0.03112983, "- N/A -   "
7.82, 226.1053, 0.0132035, NaN, NaN, NaN, 0.03112983, "- N/A -   "
7.83, 226.459, 0.0132173, NaN, NaN, NaN, 0.0323506, "- N/A -   "
7.84, 226.695, 0.0132312, NaN, NaN, NaN, 0.0335714, "- N/A -   "
7.85, 227.049, 0.0132479, NaN, NaN, NaN, 0.0335714, "- N/A -   "
7.86, 227.403, 0.0132618, NaN, NaN, NaN, 0.0347922, "- N/A -   "
7.87, 227.639, 0.0132784, NaN, NaN, NaN, 0.0347922, "- N/A -   "
7.88, 227.875, 0.0132951, NaN, NaN, NaN, 0.0347922, "- N/A -   "
7.89, 228.228, 0.0133117, NaN, NaN, NaN, 0.0347922, "- N/A -   "
7.9, 228.5822, 0.0133284, NaN, NaN, NaN, 0.03601294, "- N/A -   "
7.91, 228.936, 0.0133423, NaN, NaN, NaN, 0.03601294, "- N/A -   "
7.92, 229.172, 0.0133617, NaN, NaN, NaN, 0.03601294, "- N/A -   "
7.93, 229.644, 0.01337839, NaN, NaN, NaN, 0.0347922, "- N/A -   "
7.94, 229.998, 0.0133978, NaN, NaN, NaN, 0.0335714, "- N/A -   "
7.95, 230.351, 0.0134145, NaN, NaN, NaN, 0.0335714, "- N/A -   "
7.96, 230.705, 0.0134339, NaN, NaN, NaN, 0.0335714, "- N/A -   "
7.97, 231.0591, 0.0134506, NaN, NaN, NaN, 0.0323506, "- N/A -   "
7.98, 231.295, 0.0134672, NaN, NaN, NaN, 0.0335714, "- N/A -   "
7.99, 231.649, 0.0134811, NaN, NaN, NaN, 0.0335714, "- N/A -   "
8, 231.885, 0.013495, NaN, NaN, NaN, 0.0347922, "- N/A -   "
8.01, 232.121, 0.0135089, NaN, NaN, NaN, 0.03601294, "- N/A -   "
8.12, 235.3052, 0.0136672, NaN, NaN, NaN, 0.0482207, "- N/A -   "
8.23, 239.433, 0.0138754, NaN, NaN, NaN, 0.0372337, "- N/A -   "
8.34, 243.325, 0.0140698, NaN, NaN, NaN, 0.0323506, "- N/A -   "
8.45, 246.624, 0.0142392, NaN, NaN, NaN, 0.0384545, "- N/A -   "
8.56, 250.748, 0.0144419, NaN, NaN, NaN, 0.0299091, "- N/A -   "
8.67, 253.929, 0.0146085, NaN, NaN, NaN, 0.0384545, "- N/A -   "
8.78, 257.582, 0.01478898, NaN, NaN, NaN, 0.0396753, "- N/A -   "
8.89, 261.47, 0.014975, NaN, NaN, NaN, 0.0372337, "- N/A -   "
9, 265.123, 0.0151555, NaN, NaN, NaN, 0.0384545, "- N/A -   "
[...]
9.66, 287.7452, 0.0162634, NaN, NaN, NaN, 0.03601294, "- N/A -   "
9.77, 291.28, 0.0164467, NaN, NaN, NaN, 0.0347922, "- N/A -   "
9.88, 295.2861, 0.0166383, NaN, NaN, NaN, 0.0323506, "- N/A -   "
9.99, 299.057, 0.0168216, NaN, NaN, NaN, 0.03112983, "- N/A -   "
10.1, 302.238, 0.0169798, NaN, NaN, NaN, 0.04211683, "- N/A -   "
10.21, 305.8904, 0.0171575, NaN, NaN, NaN, 0.0445584, "- N/A -   "
10.32, 310.132, 0.0173603, NaN, NaN, NaN, 0.03601294, "- N/A -   "
10.43, 314.138, 0.0175491, NaN, NaN, NaN, 0.0335714, "- N/A -   "
10.54, 318.144, 0.0177434, NaN, NaN, NaN, 0.0286883, "- N/A -   "
10.65, 321.679, 0.0179128, NaN, NaN, NaN, 0.0347922, "- N/A -   "
10.76, 325.0961, 0.0180767, NaN, NaN, NaN, 0.0433376, "- N/A -   "
10.87, 328.867, 0.0182571, NaN, NaN, NaN, 0.0445584, "- N/A -   "
10.98, 332.99, 0.0184543, NaN, NaN, NaN, 0.0384545, "- N/A -   "
11.09, 337.586, 0.0186653, NaN, NaN, NaN, 0.0262467, "- N/A -   "
11.2, 341.12, 0.0188347, NaN, NaN, NaN, 0.0335714, "- N/A -   "
11.31, 345.009, 0.0190152, NaN, NaN, NaN, 0.0347922, "- N/A -   "
11.42, 348.6613, 0.0191874, NaN, NaN, NaN, 0.0384545, "- N/A -   "
11.53, 352.432, 0.0193595, NaN, NaN, NaN, 0.0433376, "- N/A -   "
11.64, 357.027, 0.019565, NaN, NaN, NaN, 0.0335714, "- N/A -   "
11.75, 361.151, 0.0197566, NaN, NaN, NaN, 0.0299091, "- N/A -   "
11.86, 364.686, 0.019926, NaN, NaN, NaN, 0.03601294, "- N/A -   "
11.97, 369.0452, 0.0201148, NaN, NaN, NaN, 0.0335714, "- N/A -   "
12.08, 372.816, 0.0202842, NaN, NaN, NaN, 0.0396753, "- N/A -   "
12.19, 376.822, 0.0204674, NaN, NaN, NaN, 0.0396753, "- N/A -   "
12.3, 380.946, 0.02065348, NaN, NaN, NaN, 0.0384545, "- N/A -   "
12.41, 385.1874, 0.0208451, NaN, NaN, NaN, 0.03601294, "- N/A -   "
12.52, 389.547, 0.02103945, NaN, NaN, NaN, 0.03112983, "- N/A -   "
12.63, 393.553, 0.0212172, NaN, NaN, NaN, 0.0335714, "- N/A -   "
12.74, 397.677, 0.0214032, NaN, NaN, NaN, 0.0323506, "- N/A -   "
12.85, 401.447, 0.0215698, NaN, NaN, NaN, 0.0396753, "- N/A -   "
12.96, 405.336, 0.0217447, NaN, NaN, NaN, 0.0433376, "- N/A -   "
13.07, 409.931, 0.0219447, NaN, NaN, NaN, 0.0372337, "- N/A -   "
13.18, 414.1726, 0.0221279, NaN, NaN, NaN, 0.03601294, "- N/A -   "
13.29, 418.5322, 0.0223223, NaN, NaN, NaN, 0.03112983, "- N/A -   "
13.4, 422.7739, 0.0225056, NaN, NaN, NaN, 0.03112983, "- N/A -   "
13.51, 426.1909, 0.0226611, NaN, NaN, NaN, 0.0433376, "- N/A -   "
13.62, 430.55, 0.0228471, NaN, NaN, NaN, 0.04211683, "- N/A -   "
13.73, 434.557, 0.0230248, NaN, NaN, NaN, 0.0445584, "- N/A -   "
13.84, 439.27, 0.02322753, NaN, NaN, NaN, 0.03601294, "- N/A -   "
13.95, 443.8648, 0.02342468, NaN, NaN, NaN, 0.0299091, "- N/A -   "
14.06, 448.1065, 0.0236079, NaN, NaN, NaN, 0.03112983, "- N/A -   "
14.17, 451.759, 0.023769, NaN, NaN, NaN, 0.0396753, "- N/A -   "
14.28, 455.7652, 0.0239412, NaN, NaN, NaN, 0.0445584, "- N/A -   "
14.39, 460.36, 0.0241383, NaN, NaN, NaN, 0.0384545, "- N/A -   "
14.5, 465.191, 0.0243466, NaN, NaN, NaN, 0.0286883, "- N/A -   "
14.61, 469.315, 0.0245187, NaN, NaN, NaN, 0.0323506, "- N/A -   "
14.72, 473.321, 0.02469088, NaN, NaN, NaN, 0.0384545, "- N/A -   "
14.83, 477.7987, 0.0248714, NaN, NaN, NaN, 0.0396753, "- N/A -   "
14.94, 481.569, 0.025038, NaN, NaN, NaN, 0.04577916, "- N/A -   "
15.05, 486.4, 0.0252379, NaN, NaN, NaN, 0.0384545, "- N/A -   "
15.16, 491.467, 0.0254462, NaN, NaN, NaN, 0.0274675, "- N/A -   "
15.27, 495.3548, 0.0256155, NaN, NaN, NaN, 0.0335714, "- N/A -   "
15.38, 499.832, 0.0258044, NaN, NaN, NaN, 0.03112983, "- N/A -   "
15.49, 503.838, 0.0259737, NaN, NaN, NaN, 0.0384545, "- N/A -   "
15.6, 508.08, 0.0261487, NaN, NaN, NaN, 0.04211683, "- N/A -   "
15.71, 512.793, 0.0263403, NaN, NaN, NaN, 0.0384545, "- N/A -   "
15.82, 517.285, 0.0265291, NaN, NaN, NaN, 0.0347922, "- N/A -   "
15.93, 522.0162, 0.0267207, NaN, NaN, NaN, 0.03112983, "- N/A -   "
16.04, 526.393, 0.0268984, NaN, NaN, NaN, 0.0335714, "- N/A -   "
16.15, 530.5325, 0.0270761, NaN, NaN, NaN, 0.03601294, "- N/A -   "
16.26, 534.7905, 0.027251, NaN, NaN, NaN, 0.0396753, "- N/A -   "
16.37, 539.2852, 0.0274288, NaN, NaN, NaN, 0.04211683, "- N/A -   "
16.48, 543.8982, 0.0276231, NaN, NaN, NaN, 0.0372337, "- N/A -   "
16.59, 548.7477, 0.0278175, NaN, NaN, NaN, 0.0323506, "- N/A -   "
16.7, 553.5972, 0.02801465, NaN, NaN, NaN, 0.0262467, "- N/A -   "
16.81, 557.855, 0.0281896, NaN, NaN, NaN, 0.03112983, "- N/A -   "
16.92, 561.6403, 0.02834786, NaN, NaN, NaN, 0.04089605, "- N/A -   "
17.03, 565.898, 0.02852002, NaN, NaN, NaN, 0.04699994, "- N/A -   "
17.14, 571.1028, 0.0287283, NaN, NaN, NaN, 0.03601294, "- N/A -   "
17.25, 575.5975, 0.0289171, NaN, NaN, NaN, 0.0347922, "- N/A -   "
17.36, 580.565, 0.0291059, NaN, NaN, NaN, 0.03112983, "- N/A -   "
17.47, 584.8233, 0.0292836, NaN, NaN, NaN, 0.0335714, "- N/A -   "
17.58, 588.608, 0.0294419, NaN, NaN, NaN, 0.0445584, "- N/A -   "
17.69, 593.2213, 0.0296279, NaN, NaN, NaN, 0.0445584, "- N/A -   "
17.8, 598.0708, 0.0298168, NaN, NaN, NaN, 0.04089605, "- N/A -   "
17.91, 603.393, 0.03002502, NaN, NaN, NaN, 0.0299091, "- N/A -   "
18.02, 607.77, 0.0302083, NaN, NaN, NaN, 0.0299091, "- N/A -   "
18.13, 612.2645, 0.03038322, NaN, NaN, NaN, 0.0335714, "- N/A -   "
18.24, 616.7592, 0.0305582, NaN, NaN, NaN, 0.0372337, "- N/A -   "
18.35, 621.0173, 0.030722, NaN, NaN, NaN, 0.04577916, "- N/A -   "
18.46, 626.103, 0.0309247, NaN, NaN, NaN, 0.0372337, "- N/A -   "
18.57, 631.071, 0.0311218, NaN, NaN, NaN, 0.03112983, "- N/A -   "
18.68, 635.211, 0.0312912, NaN, NaN, NaN, 0.0372337, "- N/A -   "
18.79, 640.2971, 0.0314884, NaN, NaN, NaN, 0.03112983, "- N/A -   "
18.9, 644.5552, 0.0316522, NaN, NaN, NaN, 0.0396753, "- N/A -   "
19.01, 649.05, 0.0318327, NaN, NaN, NaN, 0.04089605, "- N/A -   "
19.12, 653.781, 0.0320187, NaN, NaN, NaN, 0.0396753, "- N/A -   "
19.23, 658.5123, 0.0322075, NaN, NaN, NaN, 0.0372337, "- N/A -   "
19.34, 663.598, 0.0324047, NaN, NaN, NaN, 0.0323506, "- N/A -   "
19.45, 668.4479, 0.0325935, NaN, NaN, NaN, 0.0286883, "- N/A -   "
19.56, 672.706, 0.0327629, NaN, NaN, NaN, 0.0347922, "- N/A -   "
19.67, 677.0824, 0.0329351, NaN, NaN, NaN, 0.0396753, "- N/A -   "
19.78, 681.4588, 0.03310444, NaN, NaN, NaN, 0.04577916, "- N/A -   "
19.89, 686.9, 0.0333099, NaN, NaN, NaN, 0.03601294, "- N/A -   "
20, 691.6309, 0.0334987, NaN, NaN, NaN, 0.0347922, "- N/A -   "
20.11, 696.48, 0.03368478, NaN, NaN, NaN, 0.0323506, "- N/A -   "
20.22, 701.33, 0.03387082, NaN, NaN, NaN, 0.03112983, "- N/A -   "
20.33, 705.352, 0.03403187, NaN, NaN, NaN, 0.04089605, "- N/A -   "
20.44, 709.8462, 0.03420403, NaN, NaN, NaN, 0.04577916, "- N/A -   "
20.55, 715.051, 0.0344067, NaN, NaN, NaN, 0.0372337, "- N/A -   "
20.66, 720.2549, 0.03459833, NaN, NaN, NaN, 0.0335714, "- N/A -   "
20.77, 725.2227, 0.0347983, NaN, NaN, NaN, 0.0274675, "- N/A -   "
20.88, 729.481, 0.03496486, NaN, NaN, NaN, 0.0335714, "- N/A -   "
20.99, 733.6206, 0.0351287, NaN, NaN, NaN, 0.04211683, "- N/A -   "
21.1, 738.47, 0.0353092, NaN, NaN, NaN, 0.0433376, "- N/A -   "
21.21, 743.5562, 0.035498, NaN, NaN, NaN, 0.04089605, "- N/A -   "
21.32, 748.997, 0.03570903, NaN, NaN, NaN, 0.0286883, "- N/A -   "
21.43, 753.4918, 0.035884, NaN, NaN, NaN, 0.0323506, "- N/A -   "
21.54, 758.1048, 0.0360561, NaN, NaN, NaN, 0.0372337, "- N/A -   "
21.65, 762.836, 0.0362366, NaN, NaN, NaN, 0.0396753, "- N/A -   "
21.76, 767.2124, 0.03640877, NaN, NaN, NaN, 0.0445584, "- N/A -   "
21.87, 772.6533, 0.03661425, NaN, NaN, NaN, 0.03601294, "- N/A -   "
21.98, 777.6211, 0.0368058, NaN, NaN, NaN, 0.03112983, "- N/A -   "
22.09, 782.1158, 0.036978, NaN, NaN, NaN, 0.03601294, "- N/A -   "
22.2, 787.3201, 0.0371696, NaN, NaN, NaN, 0.0323506, "- N/A -   "
22.31, 791.6966, 0.03734176, NaN, NaN, NaN, 0.0384545, "- N/A -   "
22.42, 796.309, 0.03751947, NaN, NaN, NaN, 0.0396753, "- N/A -   "
22.53, 801.0407, 0.03770274, NaN, NaN, NaN, 0.0396753, "- N/A -   "
22.64, 805.89, 0.03788878, NaN, NaN, NaN, 0.0396753, "- N/A -   "
22.75, 811.0946, 0.0380832, NaN, NaN, NaN, 0.0335714, "- N/A -   "
22.86, 815.7076, 0.0382664, NaN, NaN, NaN, 0.0335714, "- N/A -   "
22.97, 820.557, 0.0384497, NaN, NaN, NaN, 0.0335714, "- N/A -   "
23.08, 824.8151, 0.03861629, NaN, NaN, NaN, 0.04089605, "- N/A -   "
23.19, 829.5464, 0.0387968, NaN, NaN, NaN, 0.04211683, "- N/A -   "
23.3, 834.9873, 0.0389967, NaN, NaN, NaN, 0.0347922, "- N/A -   "
23.41, 839.719, 0.03918552, NaN, NaN, NaN, 0.0323506, "- N/A -   "
23.52, 844.686, 0.0393743, NaN, NaN, NaN, 0.0299091, "- N/A -   "
23.63, 849.6542, 0.0395604, NaN, NaN, NaN, 0.0286883, "- N/A -   "
23.74, 853.321, 0.03971033, NaN, NaN, NaN, 0.0433376, "- N/A -   "
23.813, 856.3961, 0.0398242, NaN, NaN, NaN, 0.04699994, "- N/A -   "