File: 2_Tensile_Data/Hamel_ForceTest_Bolt5_Test9.csv
Time, Load (lb), Position (in), AxialStrain (in), TransverseStrain (in), Auxiliary (), Control Out (V), Stress (psi)
0.0, 13.3281, 0.0, NaN, NaN, NaN, -0.007935055, "- N/A -   "
0.01, 13.3281, 0.0, NaN, NaN, NaN, -6.103888E-4, "- N/A -   "
0.02, 13.2101, 0.0, NaN, NaN, NaN, 0.007935055, "- N/A -   "
0.03, 13.2101, 2.776752E-6, NaN, NaN, NaN, 0.0274675, "- N/A -   "
0.04, 13.3281, 5.553504E-6, NaN, NaN, NaN, 0.0445584, "- N/A -   "
0.05, 13.446, 1.66605e-05, NaN, NaN, NaN, 0.0592077, "- N/A -   "
0.06, 13.6819, 3.3321e-05, NaN, NaN, NaN, 0.07141549, "- N/A -   "
0.07, 14.0357, 5.5535e-05, NaN, NaN, NaN, 0.08118171, "- N/A -   "
0.08, 14.5075, 8.05258E-5, NaN, NaN, NaN, 0.0897272, "- N/A -   "
0.09, 15.0973, 0.000108293, NaN, NaN, NaN, 0.09705182, "- N/A -   "
0.1, 15.5691, 0.000141614, NaN, NaN, NaN, 0.0982726, "- N/A -   "
0.11, 16.1588, 0.000172159, NaN, NaN, NaN, 0.09216871, "- N/A -   "
0.12, 16.6306, 0.000199926, NaN, NaN, NaN, 0.08606482, "- N/A -   "
0.13, 17.1024, 2.304704E-4, NaN, NaN, NaN, 0.08118171, "- N/A -   "
0.14, 17.5742, 0.000255461, NaN, NaN, NaN, 0.0762986, "- N/A -   "
0.15, 17.8101, 2.776752E-4, NaN, NaN, NaN, 0.07385705, "- N/A -   "
0.16, 18.16391, 2.998892E-4, NaN, NaN, NaN, 0.07141549, "- N/A -   "
0.17, 18.5178, 3.165497E-4, NaN, NaN, NaN, 0.07141549, "- N/A -   "
0.18, 18.7536, 0.000335987, NaN, NaN, NaN, 0.0701947, "- N/A -   "
0.19, 19.1075, 0.000358201, NaN, NaN, NaN, 0.0689739, "- N/A -   "
0.2, 19.3434, 3.748615E-4, NaN, NaN, NaN, 0.06775316, "- N/A -   "
0.21, 19.8152, 0.000394299, NaN, NaN, NaN, 0.06653238, "- N/A -   "
0.22, 20.05107, 4.13736E-4, NaN, NaN, NaN, 0.0653116, "- N/A -   "
0.23, 20.4049, 4.331733E-4, NaN, NaN, NaN, 0.0640908, "- N/A -   "
0.24, 20.6408, 0.000452611, NaN, NaN, NaN, 0.0640908, "- N/A -   "
0.25, 21.1126, 4.720478E-4, NaN, NaN, NaN, 0.06287005, "- N/A -   "
0.26, 21.3485, 4.887083E-4, NaN, NaN, NaN, 0.06164927, "- N/A -   "
0.27, 21.5844, 5.081456E-4, NaN, NaN, NaN, 0.0604285, "- N/A -   "
0.28, 21.93823, 0.000527583, NaN, NaN, NaN, 0.0592077, "- N/A -   "
0.29, 22.1741, 0.000549797, NaN, NaN, NaN, 0.0579869, "- N/A -   "
0.3, 22.528, 0.000569234, NaN, NaN, NaN, 0.05676616, "- N/A -   "
0.31, 22.88181, 0.000588671, NaN, NaN, NaN, 0.0555454, "- N/A -   "
0.32, 23.1177, 0.000608109, NaN, NaN, NaN, 0.0531038, "- N/A -   "
0.33, 23.4715, 0.000627546, NaN, NaN, NaN, 0.05188305, "- N/A -   "
0.34, 23.82539, 6.497599E-4, NaN, NaN, NaN, 0.0494415, "- N/A -   "
0.35, 24.1792, 6.691972E-4, NaN, NaN, NaN, 0.0482207, "- N/A -   "
0.36, 24.5331, 0.000688634, NaN, NaN, NaN, 0.04699994, "- N/A -   "
0.37, 24.8869, 7.080717E-4, NaN, NaN, NaN, 0.04577916, "- N/A -   "
0.38, 25.1228, 7.27509E-4, NaN, NaN, NaN, 0.0445584, "- N/A -   "
0.39, 25.3587, 0.000744169, NaN, NaN, NaN, 0.0445584, "- N/A -   "
0.4, 25.7125, 7.663835E-4, NaN, NaN, NaN, 0.0433376, "- N/A -   "
0.41, 26.0664, 0.000785821, NaN, NaN, NaN, 0.04211683, "- N/A -   "
0.42, 26.3023, 0.000802481, NaN, NaN, NaN, 0.04089605, "- N/A -   "
0.43, 26.6561, 0.000821919, NaN, NaN, NaN, 0.04089605, "- N/A -   "
0.44, 27.01, 8.38579E-4, NaN, NaN, NaN, 0.0396753, "- N/A -   "
0.45, 27.2459, 8.580163E-4, NaN, NaN, NaN, 0.0396753, "- N/A -   "
0.46, 27.4818, 8.746768E-4, NaN, NaN, NaN, 0.0384545, "- N/A -   "
0.47, 27.7177, 8.941141E-4, NaN, NaN, NaN, 0.0384545, "- N/A -   "
0.48, 28.0715, 0.000907998, NaN, NaN, NaN, 0.0384545, "- N/A -   "
0.49, 28.3074, 9.274351E-4, NaN, NaN, NaN, 0.0372337, "- N/A -   "
0.5, 28.6612, 0.000946872, NaN, NaN, NaN, 0.03601294, "- N/A -   "
0.51, 28.89713, 9.663096E-4, NaN, NaN, NaN, 0.0347922, "- N/A -   "
0.52, 29.251, 9.857469E-4, NaN, NaN, NaN, 0.0335714, "- N/A -   "
0.53, 29.4869, 0.00100518, NaN, NaN, NaN, 0.0335714, "- N/A -   "
0.68, 33.49708, 0.00125509, NaN, NaN, NaN, 0.0323506, "- N/A -   "
0.83, 37.0355, 0.00148279, NaN, NaN, NaN, 0.04211683, "- N/A -   "
0.98, 40.8098, 0.00172714, NaN, NaN, NaN, 0.0445584, "- N/A -   "
1.13, 45.17388, 0.00201037, NaN, NaN, NaN, 0.0299091, "- N/A -   "
1.28, 48.9482, 0.0022575, NaN, NaN, NaN, 0.03112983, "- N/A -   "
1.43, 52.84047, 0.00250185, NaN, NaN, NaN, 0.0335714, "- N/A -   "
1.58, 56.37889, 0.00272677, NaN, NaN, NaN, 0.0445584, "- N/A -   "
1.73, 60.97884, 0.00299612, NaN, NaN, NaN, 0.03601294, "- N/A -   "
1.88, 65.107, 0.0032488, NaN, NaN, NaN, 0.03601294, "- N/A -   "
2.03, 69.35311, 0.00350426, NaN, NaN, NaN, 0.0335714, "- N/A -   "
2.18, 73.48127, 0.00373751, NaN, NaN, NaN, 0.0396753, "- N/A -   "
2.33, 78.08122, 0.003992969, NaN, NaN, NaN, 0.0384545, "- N/A -   "
2.48, 82.56323, 0.00424565, NaN, NaN, NaN, 0.03601294, "- N/A -   "
2.63, 87.28113, 0.00450667, NaN, NaN, NaN, 0.03112983, "- N/A -   "
2.78, 91.88108, 0.004756576, NaN, NaN, NaN, 0.0323506, "- N/A -   "
2.93, 96.24514, 0.004987046, NaN, NaN, NaN, 0.0396753, "- N/A -   "
3.08, 100.727, 0.00522862, NaN, NaN, NaN, 0.0445584, "- N/A -   "
3.23, 105.917, 0.00549797, NaN, NaN, NaN, 0.0347922, "- N/A -   "
3.38, 110.871, 0.00575898, NaN, NaN, NaN, 0.0299091, "- N/A -   "
3.53, 115.117, 0.00599223, NaN, NaN, NaN, 0.0372337, "- N/A -   "
3.68, 119.599, 0.006228254, NaN, NaN, NaN, 0.0445584, "- N/A -   "
3.83, 124.906, 0.006500376, NaN, NaN, NaN, 0.0347922, "- N/A -   "
3.98, 129.624, 0.006761391, NaN, NaN, NaN, 0.03112983, "- N/A -   "
4.13, 133.87, 0.00700297, NaN, NaN, NaN, 0.0347922, "- N/A -   "
4.28, 137.999, 0.00722789, NaN, NaN, NaN, 0.0445584, "- N/A -   "
4.43, 142.716, 0.00748335, NaN, NaN, NaN, 0.0433376, "- N/A -   "
4.58, 147.788, 0.007755468, NaN, NaN, NaN, 0.0335714, "- N/A -   "
4.73, 152.27, 0.007997045, NaN, NaN, NaN, 0.03601294, "- N/A -   "
4.88, 156.87, 0.008244176, NaN, NaN, NaN, 0.0384545, "- N/A -   "
5.03, 161.352, 0.008480201, NaN, NaN, NaN, 0.0433376, "- N/A -   "
5.18, 166.542, 0.008757875, NaN, NaN, NaN, 0.03112983, "- N/A -   "
5.33, 171.024, 0.008996676, NaN, NaN, NaN, 0.0372337, "- N/A -   "
5.48, 176.096, 0.009252137, NaN, NaN, NaN, 0.0335714, "- N/A -   "
5.63, 180.342, 0.009485384, NaN, NaN, NaN, 0.04089605, "- N/A -   "
5.78, 185.178, 0.009740846, NaN, NaN, NaN, 0.0396753, "- N/A -   "
5.93, 190.249, 0.009996306, NaN, NaN, NaN, 0.0372337, "- N/A -   "
6.08, 195.203, 0.0102518, NaN, NaN, NaN, 0.0347922, "- N/A -   "
6.23, 199.921, 0.0104989, NaN, NaN, NaN, 0.0347922, "- N/A -   "
6.38, 204.521, 0.0107349, NaN, NaN, NaN, 0.04089605, "- N/A -   "
6.53, 209.829, 0.0109959, NaN, NaN, NaN, 0.03601294, "- N/A -   "
6.68, 214.782, 0.0112542, NaN, NaN, NaN, 0.0323506, "- N/A -   "
6.83, 219.8541, 0.0115124, NaN, NaN, NaN, 0.0299091, "- N/A -   "
6.98, 224.1002, 0.0117318, NaN, NaN, NaN, 0.04211683, "- N/A -   "
7.13, 229.054, 0.0119817, NaN, NaN, NaN, 0.0433376, "- N/A -   "
7.28, 234.126, 0.012251, NaN, NaN, NaN, 0.0347922, "- N/A -   "
7.43, 239.551, 0.012512, NaN, NaN, NaN, 0.0299091, "- N/A -   "
7.58, 244.032, 0.0127397, NaN, NaN, NaN, 0.0384545, "- N/A -   "
7.73, 248.863, 0.0129841, NaN, NaN, NaN, 0.04089605, "- N/A -   "
7.88, 254.283, 0.0132479, NaN, NaN, NaN, 0.0347922, "- N/A -   "
8.03, 259.7026, 0.0135145, NaN, NaN, NaN, 0.0274675, "- N/A -   "
8.18, 264.416, 0.0137477, NaN, NaN, NaN, 0.0372337, "- N/A -   "
8.33, 269.364, 0.0139837, NaN, NaN, NaN, 0.04211683, "- N/A -   "
8.48, 274.431, 0.0142336, NaN, NaN, NaN, 0.0433376, "- N/A -   "
8.63, 280.322, 0.0145085, NaN, NaN, NaN, 0.03112983, "- N/A -   "
8.78, 285.035, 0.0147446, NaN, NaN, NaN, 0.0384545, "- N/A -   "
8.93, 290.4552, 0.0150028, NaN, NaN, NaN, 0.0335714, "- N/A -   "
9.08, 295.168, 0.0152333, NaN, NaN, NaN, 0.04211683, "- N/A -   "
9.23, 300.8239, 0.0154943, NaN, NaN, NaN, 0.0372337, "- N/A -   "
9.38, 306.2439, 0.0157497, NaN, NaN, NaN, 0.03601294, "- N/A -   "
9.53, 311.782, 0.0160052, NaN, NaN, NaN, 0.0323506, "- N/A -   "
9.68, 316.966, 0.0162468, NaN, NaN, NaN, 0.03601294, "- N/A -   "
9.83, 321.797, 0.0164772, NaN, NaN, NaN, 0.0445584, "- N/A -   "
9.98, 327.688, 0.0167494, NaN, NaN, NaN, 0.0347922, "- N/A -   "
10.13, 333.226, 0.0170021, NaN, NaN, NaN, 0.0335714, "- N/A -   "
10.28, 338.764, 0.0172575, NaN, NaN, NaN, 0.0323506, "- N/A -   "
10.43, 343.2413, 0.0174741, NaN, NaN, NaN, 0.04577916, "- N/A -   "
10.58, 349.3683, 0.0177434, NaN, NaN, NaN, 0.0384545, "- N/A -   "
10.73, 355.0239, 0.0180017, NaN, NaN, NaN, 0.0335714, "- N/A -   "
10.88, 360.915, 0.0182655, NaN, NaN, NaN, 0.0274675, "- N/A -   "
11.03, 365.51, 0.0184848, NaN, NaN, NaN, 0.04089605, "- N/A -   "
11.18, 370.813, 0.0187264, NaN, NaN, NaN, 0.0445584, "- N/A -   "
11.33, 376.94, 0.0190013, NaN, NaN, NaN, 0.0347922, "- N/A -   "
11.48, 382.831, 0.0192623, NaN, NaN, NaN, 0.0286883, "- N/A -   "
11.63, 388.0152, 0.0194984, NaN, NaN, NaN, 0.03601294, "- N/A -   "
11.78, 393.317, 0.0197288, NaN, NaN, NaN, 0.0445584, "- N/A -   "
11.93, 399.444, 0.0199954, NaN, NaN, NaN, 0.03601294, "- N/A -   "
12.08, 405.218, 0.0202592, NaN, NaN, NaN, 0.0299091, "- N/A -   "
12.23, 410.756, 0.0205063, NaN, NaN, NaN, 0.0323506, "- N/A -   "
12.38, 416.058, 0.0207368, NaN, NaN, NaN, 0.0396753, "- N/A -   "
12.53, 421.596, 0.02098669, NaN, NaN, NaN, 0.0396753, "- N/A -   "
12.68, 427.6048, 0.0212449, NaN, NaN, NaN, 0.0372337, "- N/A -   "
12.83, 433.26, 0.0215032, NaN, NaN, NaN, 0.0347922, "- N/A -   "
12.98, 439.152, 0.0217531, NaN, NaN, NaN, 0.0347922, "- N/A -   "
13.13, 444.454, 0.0219919, NaN, NaN, NaN, 0.0384545, "- N/A -   "
13.28, 449.992, 0.0222307, NaN, NaN, NaN, 0.0445584, "- N/A -   "
13.43, 456.472, 0.0225084, NaN, NaN, NaN, 0.0323506, "- N/A -   "
13.58, 462.246, 0.0227555, NaN, NaN, NaN, 0.0323506, "- N/A -   "
13.73, 467.901, 0.0230026, NaN, NaN, NaN, 0.0347922, "- N/A -   "
13.88, 472.968, 0.02322753, NaN, NaN, NaN, 0.0445584, "- N/A -   "
14.03, 479.2126, 0.02349132, NaN, NaN, NaN, 0.0384545, "- N/A -   "
14.18, 485.4574, 0.0237607, NaN, NaN, NaN, 0.0299091, "- N/A -   "
14.33, 491.231, 0.0240106, NaN, NaN, NaN, 0.03112983, "- N/A -   "
14.48, 496.2974, 0.0242299, NaN, NaN, NaN, 0.0433376, "- N/A -   "
14.63, 502.1887, 0.0244771, NaN, NaN, NaN, 0.04577916, "- N/A -   "
14.78, 509.14, 0.0247631, NaN, NaN, NaN, 0.0286883, "- N/A -   "
14.93, 514.6828, 0.02500465, NaN, NaN, NaN, 0.0323506, "- N/A -   "
15.08, 520.4786, 0.025249, NaN, NaN, NaN, 0.03601294, "- N/A -   "
15.23, 525.9195, 0.0254767, NaN, NaN, NaN, 0.04577916, "- N/A -   "
15.38, 532.5432, 0.0257516, NaN, NaN, NaN, 0.0335714, "- N/A -   "
15.53, 538.339, 0.0259987, NaN, NaN, NaN, 0.0347922, "- N/A -   "
15.68, 544.726, 0.026257, NaN, NaN, NaN, 0.03112983, "- N/A -   "
15.83, 550.049, 0.0264847, NaN, NaN, NaN, 0.04089605, "- N/A -   "
15.98, 556.1994, 0.0267373, NaN, NaN, NaN, 0.0396753, "- N/A -   "
16.13, 562.468, 0.02699836, NaN, NaN, NaN, 0.0347922, "- N/A -   "
16.28, 568.8554, 0.0272566, NaN, NaN, NaN, 0.03112983, "- N/A -   "
16.43, 574.6512, 0.0275037, NaN, NaN, NaN, 0.0335714, "- N/A -   "
16.58, 580.3287, 0.027737, NaN, NaN, NaN, 0.0396753, "- N/A -   "
16.73, 586.598, 0.0279897, NaN, NaN, NaN, 0.0384545, "- N/A -   "
16.88, 592.9847, 0.0282507, NaN, NaN, NaN, 0.0335714, "- N/A -   "
17.03, 599.4902, 0.0285145, NaN, NaN, NaN, 0.0286883, "- N/A -   "
17.18, 605.0494, 0.0287394, NaN, NaN, NaN, 0.0384545, "- N/A -   "
17.33, 610.6086, 0.0289726, NaN, NaN, NaN, 0.0482207, "- N/A -   "
17.48, 617.8237, 0.02925308, NaN, NaN, NaN, 0.0335714, "- N/A -   "
17.63, 624.3291, 0.02951965, NaN, NaN, NaN, 0.0274675, "- N/A -   "
17.78, 630.007, 0.0297529, NaN, NaN, NaN, 0.0347922, "- N/A -   "
17.93, 635.3293, 0.029975, NaN, NaN, NaN, 0.04577916, "- N/A -   "
18.08, 642.0712, 0.03023605, NaN, NaN, NaN, 0.04089605, "- N/A -   "
18.23, 648.8133, 0.0305109, NaN, NaN, NaN, 0.03112983, "- N/A -   "
18.38, 654.6091, 0.030747, NaN, NaN, NaN, 0.03601294, "- N/A -   "
18.53, 660.878, 0.0309913, NaN, NaN, NaN, 0.0384545, "- N/A -   "
18.68, 666.5554, 0.0312246, NaN, NaN, NaN, 0.04699994, "- N/A -   "
18.83, 673.8888, 0.0315078, NaN, NaN, NaN, 0.03112983, "- N/A -   "
18.98, 679.803, 0.03174938, NaN, NaN, NaN, 0.0347922, "- N/A -   "
19.13, 686.19, 0.0320021, NaN, NaN, NaN, 0.0347922, "- N/A -   "
19.28, 691.9858, 0.0322325, NaN, NaN, NaN, 0.04211683, "- N/A -   "
19.43, 698.4913, 0.03249077, NaN, NaN, NaN, 0.0384545, "- N/A -   "
19.58, 704.997, 0.03274901, NaN, NaN, NaN, 0.0347922, "- N/A -   "
19.73, 711.384, 0.0330017, NaN, NaN, NaN, 0.0335714, "- N/A -   "
19.88, 717.5344, 0.0332488, NaN, NaN, NaN, 0.0347922, "- N/A -   "
20.03, 723.4485, 0.0334793, NaN, NaN, NaN, 0.0433376, "- N/A -   "
20.18, 730.3088, 0.03374309, NaN, NaN, NaN, 0.0372337, "- N/A -   "
20.33, 736.933, 0.0340097, NaN, NaN, NaN, 0.0299091, "- N/A -   "
20.48, 743.32, 0.03425956, NaN, NaN, NaN, 0.0299091, "- N/A -   "
20.63, 748.761, 0.03448448, NaN, NaN, NaN, 0.04089605, "- N/A -   "
20.78, 755.266, 0.03473161, NaN, NaN, NaN, 0.04211683, "- N/A -   "
20.93, 762.1263, 0.0350037, NaN, NaN, NaN, 0.0323506, "- N/A -   "
21.08, 768.75, 0.0352592, NaN, NaN, NaN, 0.0299091, "- N/A -   "
21.23, 774.428, 0.0354924, NaN, NaN, NaN, 0.0372337, "- N/A -   "
21.38, 780.342, 0.0357285, NaN, NaN, NaN, 0.0445584, "- N/A -   "
21.53, 786.965, 0.0359895, NaN, NaN, NaN, 0.0396753, "- N/A -   "
21.68, 794.0622, 0.0362616, NaN, NaN, NaN, 0.0286883, "- N/A -   "
21.83, 800.213, 0.036506, NaN, NaN, NaN, 0.0335714, "- N/A -   "
21.98, 806.245, 0.03674198, NaN, NaN, NaN, 0.0384545, "- N/A -   "
22.13, 812.514, 0.0369863, NaN, NaN, NaN, 0.04211683, "- N/A -   "
22.28, 819.374, 0.0372501, NaN, NaN, NaN, 0.0347922, "- N/A -   "
22.43, 825.4066, 0.0374834, NaN, NaN, NaN, 0.04211683, "- N/A -   "
22.48, 827.8905, 0.03758056, NaN, NaN, NaN, 0.0372337, "- N/A -   "
22.49, 828.6, 0.0376, NaN, NaN, NaN, 0.0347922, "- N/A -   "
22.5, 829.0733, 0.0376194, NaN, NaN, NaN, 0.0335714, "- N/A -   "
22.6, 833.3314, 0.03778326, NaN, NaN, NaN, 0.0347922, "- N/A -   "
22.7, 837.2347, 0.0379415, NaN, NaN, NaN, 0.0396753, "- N/A -   "
22.8, 841.2562, 0.03810259, NaN, NaN, NaN, 0.04211683, "- N/A -   "
22.9, 845.751, 0.03827197, NaN, NaN, NaN, 0.0396753, "- N/A -   "
23, 850.127, 0.0384469, NaN, NaN, NaN, 0.03601294, "- N/A -   "
23.1, 854.8585, 0.0386274, NaN, NaN, NaN, 0.03112983, "- N/A -   "
23.2, 858.9983, 0.0387912, NaN, NaN, NaN, 0.03112983, "- N/A -   "
23.3, 863.1382, 0.03895228, NaN, NaN, NaN, 0.0347922, "- N/A -   "
23.4, 867.041, 0.0391078, NaN, NaN, NaN, 0.0384545, "- N/A -   "
23.5, 871.063, 0.0392605, NaN, NaN, NaN, 0.0445584, "- N/A -   "
23.6, 875.9125, 0.03944376, NaN, NaN, NaN, 0.0372337, "- N/A -   "
23.7, 880.171, 0.0396159, NaN, NaN, NaN, 0.03601294, "- N/A -   "
23.8, 884.6653, 0.0397825, NaN, NaN, NaN, 0.03601294, "- N/A -   "
23.9, 889.278, 0.03995746, NaN, NaN, NaN, 0.03112983, "- N/A -   "
24, 892.9449, 0.0401074, NaN, NaN, NaN, 0.0384545, "- N/A -   "
24.1, 896.8482, 0.04025735, NaN, NaN, NaN, 0.04577916, "- N/A -   "
24.2, 901.4612, 0.04042951, NaN, NaN, NaN, 0.0433376, "- N/A -   "
24.3, 906.192, 0.04061555, NaN, NaN, NaN, 0.0347922, "- N/A -   "
24.4, 910.8053, 0.0407933, NaN, NaN, NaN, 0.03112983, "- N/A -   "
24.5, 915.4183, 0.0409682, NaN, NaN, NaN, 0.0262467, "- N/A -   "
24.6, 919.2033, 0.04112092, NaN, NaN, NaN, 0.0323506, "- N/A -   "
24.7, 922.7517, 0.0412625, NaN, NaN, NaN, 0.0433376, "- N/A -   "
24.8, 927.2464, 0.0414319, NaN, NaN, NaN, 0.04211683, "- N/A -   "
24.9, 931.623, 0.04159852, NaN, NaN, NaN, 0.04211683, "- N/A -   "
25, 936.709, 0.0417901, NaN, NaN, NaN, 0.03112983, "- N/A -   "
25.1, 941.085, 0.0419623, NaN, NaN, NaN, 0.0299091, "- N/A -   "
25.2, 945.1068, 0.04211222, NaN, NaN, NaN, 0.03601294, "- N/A -   "
25.3, 949.483, 0.04227605, NaN, NaN, NaN, 0.0372337, "- N/A -   "
25.4, 953.3865, 0.04243155, NaN, NaN, NaN, 0.04211683, "- N/A -   "
25.5, 957.645, 0.0425926, NaN, NaN, NaN, 0.0445584, "- N/A -   "
25.6, 962.8489, 0.0427842, NaN, NaN, NaN, 0.0335714, "- N/A -   "
25.7, 967.344, 0.0429591, NaN, NaN, NaN, 0.0299091, "- N/A -   "
25.8, 971.483, 0.0431146, NaN, NaN, NaN, 0.0347922, "- N/A -   "
25.9, 976.0964, 0.0432923, NaN, NaN, NaN, 0.0299091, "- N/A -   "
26, 980.1179, 0.0434451, NaN, NaN, NaN, 0.03601294, "- N/A -   "
26.1, 984.139, 0.04359778, NaN, NaN, NaN, 0.04211683, "- N/A -   "
26.2, 988.752, 0.0437755, NaN, NaN, NaN, 0.0372337, "- N/A -   "
26.3, 993.247, 0.0439421, NaN, NaN, NaN, 0.0384545, "- N/A -   "
26.4, 997.624, 0.04411148, NaN, NaN, NaN, 0.0372337, "- N/A -   "
26.5, 1002.24, 0.0442836, NaN, NaN, NaN, 0.0347922, "- N/A -   "
26.6, 1006.38, 0.0444447, NaN, NaN, NaN, 0.0372337, "- N/A -   "
26.7, 1010.99, 0.0446169, NaN, NaN, NaN, 0.03601294, "- N/A -   "
26.8, 1015.03, 0.04476957, NaN, NaN, NaN, 0.04211683, "- N/A -   "
26.9, 1019.32, 0.0449306, NaN, NaN, NaN, 0.0433376, "- N/A -   "
27, 1024.09, 0.0451111, NaN, NaN, NaN, 0.0384545, "- N/A -   "
27.1, 1028.98, 0.0452888, NaN, NaN, NaN, 0.0323506, "- N/A -   "
27.2, 1033.39, 0.04545543, NaN, NaN, NaN, 0.0323506, "- N/A -   "
27.3, 1038.04, 0.0456331, NaN, NaN, NaN, 0.0274675, "- N/A -   "
27.4, 1042.22, 0.0457914, NaN, NaN, NaN, 0.0323506, "- N/A -   "
27.5, 1045.79, 0.0459275, NaN, NaN, NaN, 0.0445584, "- N/A -   "
27.6, 1050.33, 0.04609686, NaN, NaN, NaN, 0.0445584, "- N/A -   "
27.7, 1055.22, 0.04627735, NaN, NaN, NaN, 0.0372337, "- N/A -   "
27.8, 1059.27, 0.04643285, NaN, NaN, NaN, 0.0433376, "- N/A -   "
27.9, 1064.4, 0.0466189, NaN, NaN, NaN, 0.0335714, "- N/A -   "
28, 1068.45, 0.0467772, NaN, NaN, NaN, 0.0372337, "- N/A -   "
28.1, 1072.51, 0.0469327, NaN, NaN, NaN, 0.04211683, "- N/A -   "
[...]
37.03, 1473.19, 0.0618188, NaN, NaN, NaN, 0.04089605, "- N/A -   "
37.05, 1474.15, 0.06185215, NaN, NaN, NaN, 0.04089605, "- N/A -   "
37.07, 1474.86, 0.0618827, NaN, NaN, NaN, 0.04211683, "- N/A -   "
37.09, 1475.7, 0.061916, NaN, NaN, NaN, 0.0433376, "- N/A -   "
37.11, 1476.53, 0.06194656, NaN, NaN, NaN, 0.0445584, "- N/A -   "
37.13, 1477.49, 0.0619771, NaN, NaN, NaN, 0.04577916, "- N/A -   "
37.15, 1478.44, 0.0620132, NaN, NaN, NaN, 0.0445584, "- N/A -   "
37.17, 1479.156, 0.0620437, NaN, NaN, NaN, 0.0445584, "- N/A -   "
37.19, 1480.23, 0.0620771, NaN, NaN, NaN, 0.0445584, "- N/A -   "
37.21, 1481.064, 0.06211039, NaN, NaN, NaN, 0.0445584, "- N/A -   "
37.23, 1482.26, 0.06214926, NaN, NaN, NaN, 0.04211683, "- N/A -   "
37.25, 1483.33, 0.0621909, NaN, NaN, NaN, 0.0384545, "- N/A -   "
37.27, 1484.52, 0.0622326, NaN, NaN, NaN, 0.03601294, "- N/A -   "
37.29, 1485.48, 0.0622687, NaN, NaN, NaN, 0.0347922, "- N/A -   "
37.31, 1486.43, 0.062302, NaN, NaN, NaN, 0.0347922, "- N/A -   "
37.33, 1487.15, 0.0623325, NaN, NaN, NaN, 0.0347922, "- N/A -   "
37.35, 1488.1, 0.06236585, NaN, NaN, NaN, 0.0347922, "- N/A -   "
37.37, 1488.82, 0.0623992, NaN, NaN, NaN, 0.03601294, "- N/A -   "
37.39, 1489.77, 0.0624325, NaN, NaN, NaN, 0.03601294, "- N/A -   "
37.41, 1490.72, 0.0624658, NaN, NaN, NaN, 0.0347922, "- N/A -   "
37.43, 1491.68, 0.0624991, NaN, NaN, NaN, 0.0347922, "- N/A -   "
37.45, 1492.63, 0.06253801, NaN, NaN, NaN, 0.0335714, "- N/A -   "
37.47, 1493.7, 0.06257688, NaN, NaN, NaN, 0.03112983, "- N/A -   "
37.49, 1494.778, 0.06261298, NaN, NaN, NaN, 0.0286883, "- N/A -   "
37.51, 1495.85, 0.06264908, NaN, NaN, NaN, 0.0274675, "- N/A -   "
37.53, 1496.69, 0.0626824, NaN, NaN, NaN, 0.0274675, "- N/A -   "
37.55, 1497.4, 0.0627129, NaN, NaN, NaN, 0.0286883, "- N/A -   "
37.57, 1498.24, 0.0627435, NaN, NaN, NaN, 0.0299091, "- N/A -   "
37.59, 1498.95, 0.06277403, NaN, NaN, NaN, 0.0323506, "- N/A -   "
37.61, 1499.67, 0.06279902, NaN, NaN, NaN, 0.0347922, "- N/A -   "
37.63, 1500.38, 0.06282679, NaN, NaN, NaN, 0.0372337, "- N/A -   "
37.65, 1501.22, 0.06285734, NaN, NaN, NaN, 0.0396753, "- N/A -   "
37.67, 1501.81, 0.0628851, NaN, NaN, NaN, 0.04089605, "- N/A -   "
37.69, 1502.77, 0.0629156, NaN, NaN, NaN, 0.04211683, "- N/A -   "
37.71, 1503.48, 0.0629434, NaN, NaN, NaN, 0.0445584, "- N/A -   "
37.73, 1504.32, 0.062974, NaN, NaN, NaN, 0.04577916, "- N/A -   "
37.75, 1505.15, 0.06300728, NaN, NaN, NaN, 0.04699994, "- N/A -   "
37.77, 1505.87, 0.06303782, NaN, NaN, NaN, 0.0482207, "- N/A -   "
37.79, 1506.82, 0.06307115, NaN, NaN, NaN, 0.04699994, "- N/A -   "
37.81, 1507.78, 0.0631045, NaN, NaN, NaN, 0.04699994, "- N/A -   "
37.83, 1508.73, 0.06314334, NaN, NaN, NaN, 0.04577916, "- N/A -   "
37.85, 1509.8, 0.06318221, NaN, NaN, NaN, 0.0433376, "- N/A -   "
37.87, 1511, 0.06322109, NaN, NaN, NaN, 0.0396753, "- N/A -   "
37.89, 1512.07, 0.06325996, NaN, NaN, NaN, 0.0372337, "- N/A -   "
37.91, 1513.14, 0.06329884, NaN, NaN, NaN, 0.0347922, "- N/A -   "
37.93, 1514.216, 0.06333771, NaN, NaN, NaN, 0.0323506, "- N/A -   "
37.95, 1515.17, 0.06337103, NaN, NaN, NaN, 0.0323506, "- N/A -   "
37.97, 1516, 0.06340713, NaN, NaN, NaN, 0.0323506, "- N/A -   "
37.99, 1516.96, 0.06344045, NaN, NaN, NaN, 0.0323506, "- N/A -   "
38.01, 1517.79, 0.063471, NaN, NaN, NaN, 0.0323506, "- N/A -   "
38.03, 1518.87, 0.0635099, NaN, NaN, NaN, 0.0299091, "- N/A -   "
38.05, 1519.94, 0.06354874, NaN, NaN, NaN, 0.0286883, "- N/A -   "
38.07, 1520.89, 0.06358484, NaN, NaN, NaN, 0.0274675, "- N/A -   "
38.09, 1521.729, 0.06361817, NaN, NaN, NaN, 0.0274675, "- N/A -   "
38.11, 1522.44, 0.06364871, NaN, NaN, NaN, 0.0274675, "- N/A -   "
38.13, 1523.52, 0.06368203, NaN, NaN, NaN, 0.0274675, "- N/A -   "
38.15, 1524.35, 0.0637153, NaN, NaN, NaN, 0.0274675, "- N/A -   "
38.17, 1525.19, 0.06374867, NaN, NaN, NaN, 0.0286883, "- N/A -   "
38.19, 1526.022, 0.06377922, NaN, NaN, NaN, 0.0299091, "- N/A -   "
38.21, 1526.74, 0.06380698, NaN, NaN, NaN, 0.0323506, "- N/A -   "
38.23, 1527.57, 0.06383753, NaN, NaN, NaN, 0.0323506, "- N/A -   "
38.25, 1528.17, 0.0638653, NaN, NaN, NaN, 0.0347922, "- N/A -   "
38.27, 1528.884, 0.06389306, NaN, NaN, NaN, 0.0372337, "- N/A -   "
38.29, 1529.72, 0.06392083, NaN, NaN, NaN, 0.0396753, "- N/A -   "
38.31, 1530.55, 0.06395137, NaN, NaN, NaN, 0.04089605, "- N/A -   "
38.33, 1531.15, 0.06397914, NaN, NaN, NaN, 0.0433376, "- N/A -   "
38.35, 1531.98, 0.06400969, NaN, NaN, NaN, 0.0445584, "- N/A -   "
38.37, 1532.94, 0.06404023, NaN, NaN, NaN, 0.04577916, "- N/A -   "
38.39, 1533.77, 0.06407355, NaN, NaN, NaN, 0.04577916, "- N/A -   "
38.41, 1534.49, 0.0641069, NaN, NaN, NaN, 0.04577916, "- N/A -   "
38.43, 1535.56, 0.06414019, NaN, NaN, NaN, 0.04577916, "- N/A -   "
38.45, 1536.4, 0.06417352, NaN, NaN, NaN, 0.04577916, "- N/A -   "
38.47, 1537.47, 0.06420962, NaN, NaN, NaN, 0.0445584, "- N/A -   "
38.49, 1538.3, 0.06424294, NaN, NaN, NaN, 0.0445584, "- N/A -   "
38.51, 1539.38, 0.0642763, NaN, NaN, NaN, 0.0445584, "- N/A -   "
38.53, 1540.09, 0.0643124, NaN, NaN, NaN, 0.0445584, "- N/A -   "
38.55, 1541.05, 0.06434567, NaN, NaN, NaN, 0.0445584, "- N/A -   "
38.57, 1542, 0.06437899, NaN, NaN, NaN, 0.0433376, "- N/A -   "
38.59, 1543.075, 0.06441787, NaN, NaN, NaN, 0.04089605, "- N/A -   "
38.61, 1544.27, 0.06445952, NaN, NaN, NaN, 0.0384545, "- N/A -   "
38.63, 1545.34, 0.0645012, NaN, NaN, NaN, 0.0335714, "- N/A -   "
38.65, 1546.65, 0.0645456, NaN, NaN, NaN, 0.0299091, "- N/A -   "
38.67, 1547.61, 0.0645817, NaN, NaN, NaN, 0.0274675, "- N/A -   "
38.69, 1548.56, 0.0646178, NaN, NaN, NaN, 0.0262467, "- N/A -   "
38.71, 1549.51, 0.06465112, NaN, NaN, NaN, 0.0274675, "- N/A -   "
38.73, 1550.23, 0.06468166, NaN, NaN, NaN, 0.0274675, "- N/A -   "
38.75, 1551.065, 0.0647122, NaN, NaN, NaN, 0.0286883, "- N/A -   "
38.77, 1551.78, 0.06473997, NaN, NaN, NaN, 0.03112983, "- N/A -   "
38.79, 1552.62, 0.06477051, NaN, NaN, NaN, 0.0335714, "- N/A -   "
38.81, 1553.33, 0.06479828, NaN, NaN, NaN, 0.0347922, "- N/A -   "
38.83, 1554.17, 0.06482883, NaN, NaN, NaN, 0.03601294, "- N/A -   "
38.85, 1555, 0.06486215, NaN, NaN, NaN, 0.0372337, "- N/A -   "
38.87, 1556.07, 0.06489547, NaN, NaN, NaN, 0.03601294, "- N/A -   "
38.89, 1556.91, 0.06492879, NaN, NaN, NaN, 0.03601294, "- N/A -   "
38.91, 1557.86, 0.06496211, NaN, NaN, NaN, 0.03601294, "- N/A -   "
38.93, 1558.697, 0.06499543, NaN, NaN, NaN, 0.03601294, "- N/A -   "
38.95, 1559.41, 0.06502598, NaN, NaN, NaN, 0.0372337, "- N/A -   "
38.97, 1560.37, 0.0650593, NaN, NaN, NaN, 0.0372337, "- N/A -   "
38.99, 1561.44, 0.06509262, NaN, NaN, NaN, 0.0372337, "- N/A -   "
39.01, 1562.04, 0.06512316, NaN, NaN, NaN, 0.0384545, "- N/A -   "
39.03, 1562.99, 0.0651537, NaN, NaN, NaN, 0.0396753, "- N/A -   "
39.05, 1563.71, 0.06518425, NaN, NaN, NaN, 0.04089605, "- N/A -   "
39.07, 1564.54, 0.0652148, NaN, NaN, NaN, 0.04211683, "- N/A -   "
39.09, 1565.38, 0.06524534, NaN, NaN, NaN, 0.0433376, "- N/A -   "
39.11, 1566.33, 0.06527866, NaN, NaN, NaN, 0.0445584, "- N/A -   "
39.13, 1567.164, 0.0653092, NaN, NaN, NaN, 0.04577916, "- N/A -   "
39.15, 1567.88, 0.06534253, NaN, NaN, NaN, 0.0445584, "- N/A -   "
39.17, 1568.83, 0.06537585, NaN, NaN, NaN, 0.0445584, "- N/A -   "
39.19, 1569.91, 0.06541473, NaN, NaN, NaN, 0.04211683, "- N/A -   "
39.21, 1571.1, 0.06545637, NaN, NaN, NaN, 0.0396753, "- N/A -   "
39.23, 1572.17, 0.0654952, NaN, NaN, NaN, 0.03601294, "- N/A -   "
39.25, 1573.25, 0.06553412, NaN, NaN, NaN, 0.0335714, "- N/A -   "
39.27, 1574.2, 0.06557022, NaN, NaN, NaN, 0.0323506, "- N/A -   "
39.29, 1575.39, 0.0656091, NaN, NaN, NaN, 0.0299091, "- N/A -   "
39.31, 1576.47, 0.065648, NaN, NaN, NaN, 0.0274675, "- N/A -   "
39.33, 1577.3, 0.06568407, NaN, NaN, NaN, 0.0262467, "- N/A -   "
39.35, 1578.14, 0.06571461, NaN, NaN, NaN, 0.0274675, "- N/A -   "
39.37, 1578.85, 0.06574515, NaN, NaN, NaN, 0.0286883, "- N/A -   "
39.39, 1579.69, 0.0657757, NaN, NaN, NaN, 0.0299091, "- N/A -   "
39.41, 1580.4, 0.06580347, NaN, NaN, NaN, 0.0323506, "- N/A -   "
39.43, 1581.24, 0.06583124, NaN, NaN, NaN, 0.0347922, "- N/A -   "
39.45, 1581.95, 0.0658618, NaN, NaN, NaN, 0.03601294, "- N/A -   "
39.47, 1582.91, 0.0658951, NaN, NaN, NaN, 0.03601294, "- N/A -   "
39.49, 1583.74, 0.0659312, NaN, NaN, NaN, 0.03601294, "- N/A -   "
39.51, 1584.93, 0.0659673, NaN, NaN, NaN, 0.0335714, "- N/A -   "
39.53, 1585.89, 0.0660034, NaN, NaN, NaN, 0.0323506, "- N/A -   "
39.55, 1586.72, 0.0660367, NaN, NaN, NaN, 0.0323506, "- N/A -   "
39.57, 1587.556, 0.0660673, NaN, NaN, NaN, 0.0335714, "- N/A -   "
39.575, 1587.79, 0.06607559, NaN, NaN, NaN, 0.0347922, "- N/A -   "