File: 2_Tensile_Data/Hamel_ForceTest_Bolt7_Test2.csv
Time, Load (lb), Position (in), AxialStrain (in), TransverseStrain (in), Auxiliary (), Control Out (V), Stress (psi)
0.0, 1.06153, 0.0, NaN, NaN, NaN, 0.04699994, "- N/A -   "
0.01, 1.06153, 1.66605e-05, NaN, NaN, NaN, 0.04577916, "- N/A -   "
0.02, 1.06153, 3.3321e-05, NaN, NaN, NaN, 0.04577916, "- N/A -   "
0.03, 1.06153, 5.27583e-05, NaN, NaN, NaN, 0.04577916, "- N/A -   "
0.04, 1.17947, 6.94188E-5, NaN, NaN, NaN, 0.04577916, "- N/A -   "
0.05, 1.17947, 8.607931E-5, NaN, NaN, NaN, 0.04577916, "- N/A -   "
0.06, 1.17947, 9.99631e-05, NaN, NaN, NaN, 0.04577916, "- N/A -   "
0.07, 1.17947, 0.000116624, NaN, NaN, NaN, 0.04577916, "- N/A -   "
0.08, 1.29742, 0.000133284, NaN, NaN, NaN, 0.04699994, "- N/A -   "
0.09, 1.29742, 0.000147168, NaN, NaN, NaN, 0.04699994, "- N/A -   "
0.1, 1.29742, 0.000163828, NaN, NaN, NaN, 0.04699994, "- N/A -   "
0.11, 1.29742, 0.000180489, NaN, NaN, NaN, 0.04699994, "- N/A -   "
0.12, 1.41537, 0.000197149, NaN, NaN, NaN, 0.04699994, "- N/A -   "
0.13, 1.41537, 0.000216587, NaN, NaN, NaN, 0.04577916, "- N/A -   "
0.14, 1.41537, 0.000233247, NaN, NaN, NaN, 0.04577916, "- N/A -   "
0.15, 1.53332, 2.526844E-4, NaN, NaN, NaN, 0.04577916, "- N/A -   "
0.16, 1.53332, 2.721217E-4, NaN, NaN, NaN, 0.0445584, "- N/A -   "
0.17, 1.53332, 0.000291559, NaN, NaN, NaN, 0.04211683, "- N/A -   "
0.18, 1.53332, 3.109962E-4, NaN, NaN, NaN, 0.04089605, "- N/A -   "
0.19, 1.65126, 0.00033321, NaN, NaN, NaN, 0.0384545, "- N/A -   "
0.2, 1.65126, 0.000352647, NaN, NaN, NaN, 0.0372337, "- N/A -   "
0.21, 1.65126, 3.748615E-4, NaN, NaN, NaN, 0.0347922, "- N/A -   "
0.22, 1.76921, 0.000397076, NaN, NaN, NaN, 0.0323506, "- N/A -   "
0.23, 1.76921, 0.000416513, NaN, NaN, NaN, 0.03112983, "- N/A -   "
0.24, 1.76921, 4.387268E-4, NaN, NaN, NaN, 0.0286883, "- N/A -   "
0.25, 1.88716, 0.000458164, NaN, NaN, NaN, 0.0286883, "- N/A -   "
0.26, 1.88716, 0.000474825, NaN, NaN, NaN, 0.0274675, "- N/A -   "
0.27, 1.88716, 0.000491485, NaN, NaN, NaN, 0.0274675, "- N/A -   "
0.28, 2.005107, 5.081456E-4, NaN, NaN, NaN, 0.0274675, "- N/A -   "
0.29, 1.88716, 0.000522029, NaN, NaN, NaN, 0.0286883, "- N/A -   "
0.3, 2.005107, 5.359131E-4, NaN, NaN, NaN, 0.0299091, "- N/A -   "
0.31, 2.005107, 5.525736E-4, NaN, NaN, NaN, 0.0299091, "- N/A -   "
0.32, 2.005107, 0.000569234, NaN, NaN, NaN, 0.0299091, "- N/A -   "
0.33, 2.12305, 5.858946E-4, NaN, NaN, NaN, 0.0299091, "- N/A -   "
0.34, 2.12305, 0.000602555, NaN, NaN, NaN, 0.0299091, "- N/A -   "
0.35, 2.12305, 0.000619216, NaN, NaN, NaN, 0.03112983, "- N/A -   "
0.36, 2.12305, 0.000635876, NaN, NaN, NaN, 0.03112983, "- N/A -   "
0.37, 2.241, 6.497599E-4, NaN, NaN, NaN, 0.03112983, "- N/A -   "
0.38, 2.12305, 0.00066642, NaN, NaN, NaN, 0.03112983, "- N/A -   "
0.39, 2.241, 6.803042E-4, NaN, NaN, NaN, 0.0323506, "- N/A -   "
0.4, 2.241, 0.000694188, NaN, NaN, NaN, 0.0335714, "- N/A -   "
0.41, 2.241, 7.108485E-4, NaN, NaN, NaN, 0.0335714, "- N/A -   "
0.42, 2.241, 7.27509E-4, NaN, NaN, NaN, 0.0347922, "- N/A -   "
0.43, 2.241, 7.413927E-4, NaN, NaN, NaN, 0.0347922, "- N/A -   "
0.44, 2.35895, 0.000758053, NaN, NaN, NaN, 0.0347922, "- N/A -   "
0.47, 2.35895, 8.080348E-4, NaN, NaN, NaN, 0.0347922, "- N/A -   "
0.5, 2.476897, 0.000860793, NaN, NaN, NaN, 0.0335714, "- N/A -   "
0.53, 2.59484, 9.107746E-4, NaN, NaN, NaN, 0.0335714, "- N/A -   "
0.56, 2.476897, 9.552026E-4, NaN, NaN, NaN, 0.03601294, "- N/A -   "
0.59, 2.712792, 9.996307E-4, NaN, NaN, NaN, 0.0384545, "- N/A -   "
0.62, 2.712792, 0.00104684, NaN, NaN, NaN, 0.04089605, "- N/A -   "
0.65, 2.712792, 0.00109126, NaN, NaN, NaN, 0.0433376, "- N/A -   "
0.68, 2.83074, 0.00113569, NaN, NaN, NaN, 0.04577916, "- N/A -   "
0.71, 2.59484, 0.00118012, NaN, NaN, NaN, 0.04699994, "- N/A -   "
0.74, 2.94869, 0.00123288, NaN, NaN, NaN, 0.04577916, "- N/A -   "
0.77, 2.94869, 0.00128841, NaN, NaN, NaN, 0.0433376, "- N/A -   "
0.8, 3.06663, 0.00134672, NaN, NaN, NaN, 0.0396753, "- N/A -   "
0.83, 3.18458, 0.00140781, NaN, NaN, NaN, 0.0347922, "- N/A -   "
0.86, 3.42048, 0.00146612, NaN, NaN, NaN, 0.0323506, "- N/A -   "
0.89, 3.42048, 0.00152166, NaN, NaN, NaN, 0.0286883, "- N/A -   "
0.92, 3.53842, 0.00157442, NaN, NaN, NaN, 0.0274675, "- N/A -   "
0.95, 3.65637, 0.001621623, NaN, NaN, NaN, 0.0286883, "- N/A -   "
0.98, 3.774319, 0.00166883, NaN, NaN, NaN, 0.03112983, "- N/A -   "
1.01, 3.89227, 0.00171326, NaN, NaN, NaN, 0.0323506, "- N/A -   "
1.04, 4.12816, 0.00175768, NaN, NaN, NaN, 0.0347922, "- N/A -   "
1.07, 4.246109, 0.00180767, NaN, NaN, NaN, 0.0347922, "- N/A -   "
1.1, 4.246109, 0.00186042, NaN, NaN, NaN, 0.0335714, "- N/A -   "
1.13, 4.59995, 0.001913182, NaN, NaN, NaN, 0.0335714, "- N/A -   "
1.16, 4.717899, 0.00196316, NaN, NaN, NaN, 0.0323506, "- N/A -   "
1.19, 4.717899, 0.00201037, NaN, NaN, NaN, 0.0335714, "- N/A -   "
1.22, 4.83585, 0.002057573, NaN, NaN, NaN, 0.03601294, "- N/A -   "
1.25, 5.071741, 0.002102001, NaN, NaN, NaN, 0.0384545, "- N/A -   "
1.28, 5.18969, 0.00214643, NaN, NaN, NaN, 0.0396753, "- N/A -   "
1.31, 5.18969, 0.00219363, NaN, NaN, NaN, 0.04089605, "- N/A -   "
1.34, 5.425584, 0.00224362, NaN, NaN, NaN, 0.04211683, "- N/A -   "
1.37, 5.66148, 0.0022936, NaN, NaN, NaN, 0.04089605, "- N/A -   "
1.4, 5.66148, 0.00234913, NaN, NaN, NaN, 0.0396753, "- N/A -   "
1.43, 5.897373, 0.00239911, NaN, NaN, NaN, 0.0396753, "- N/A -   "
1.46, 6.01532, 0.00245187, NaN, NaN, NaN, 0.0384545, "- N/A -   "
1.49, 6.13327, 0.00249908, NaN, NaN, NaN, 0.0384545, "- N/A -   "
1.52, 6.369163, 0.00254906, NaN, NaN, NaN, 0.0384545, "- N/A -   "
1.55, 6.487111, 0.00260459, NaN, NaN, NaN, 0.0372337, "- N/A -   "
1.58, 6.60506, 0.00265457, NaN, NaN, NaN, 0.0372337, "- N/A -   "
1.61, 6.723006, 0.00270733, NaN, NaN, NaN, 0.0347922, "- N/A -   "
1.64, 6.84095, 0.00276009, NaN, NaN, NaN, 0.0335714, "- N/A -   "
1.67, 7.07685, 0.00281007, NaN, NaN, NaN, 0.0335714, "- N/A -   "
1.7, 7.1948, 0.00286005, NaN, NaN, NaN, 0.0335714, "- N/A -   "
1.73, 7.430691, 0.00291281, NaN, NaN, NaN, 0.0335714, "- N/A -   "
1.76, 7.548638, 0.00296279, NaN, NaN, NaN, 0.0323506, "- N/A -   "
1.79, 7.666586, 0.003012776, NaN, NaN, NaN, 0.0335714, "- N/A -   "
1.82, 7.90248, 0.00306276, NaN, NaN, NaN, 0.0323506, "- N/A -   "
1.85, 8.020428, 0.003112739, NaN, NaN, NaN, 0.0335714, "- N/A -   "
1.88, 8.138375, 0.00315994, NaN, NaN, NaN, 0.0335714, "- N/A -   "
1.91, 8.256323, 0.003212702, NaN, NaN, NaN, 0.0323506, "- N/A -   "
1.94, 8.37427, 0.00326268, NaN, NaN, NaN, 0.0323506, "- N/A -   "
1.97, 8.610166, 0.003309888, NaN, NaN, NaN, 0.0347922, "- N/A -   "
2, 8.610166, 0.00335154, NaN, NaN, NaN, 0.0372337, "- N/A -   "
2.03, 8.846061, 0.00339874, NaN, NaN, NaN, 0.0384545, "- N/A -   "
2.06, 8.964007, 0.00344595, NaN, NaN, NaN, 0.0396753, "- N/A -   "
2.09, 9.081955, 0.00349038, NaN, NaN, NaN, 0.04211683, "- N/A -   "
2.12, 9.199903, 0.003537582, NaN, NaN, NaN, 0.0433376, "- N/A -   "
2.15, 9.435798, 0.00358756, NaN, NaN, NaN, 0.0433376, "- N/A -   "
2.18, 9.671693, 0.00364032, NaN, NaN, NaN, 0.04211683, "- N/A -   "
2.21, 9.907588, 0.00369308, NaN, NaN, NaN, 0.04089605, "- N/A -   "
2.24, 10.1435, 0.00375139, NaN, NaN, NaN, 0.0384545, "- N/A -   "
2.27, 10.3794, 0.0038097, NaN, NaN, NaN, 0.0347922, "- N/A -   "
2.3, 10.73322, 0.00386246, NaN, NaN, NaN, 0.0323506, "- N/A -   "
2.33, 10.9691, 0.00391244, NaN, NaN, NaN, 0.0323506, "- N/A -   "
2.36, 11.205, 0.00396242, NaN, NaN, NaN, 0.0323506, "- N/A -   "
2.39, 11.5589, 0.00400963, NaN, NaN, NaN, 0.0335714, "- N/A -   "
2.42, 11.7947, 0.00406239, NaN, NaN, NaN, 0.0335714, "- N/A -   "
2.45, 12.14859, 0.00411792, NaN, NaN, NaN, 0.03112983, "- N/A -   "
2.48, 12.3845, 0.00417068, NaN, NaN, NaN, 0.0299091, "- N/A -   "
2.51, 12.6204, 0.00422066, NaN, NaN, NaN, 0.0286883, "- N/A -   "
2.54, 12.8563, 0.00427064, NaN, NaN, NaN, 0.0286883, "- N/A -   "
2.57, 13.2101, 0.00431785, NaN, NaN, NaN, 0.0299091, "- N/A -   "
2.6, 13.446, 0.00436228, NaN, NaN, NaN, 0.0335714, "- N/A -   "
2.63, 13.6819, 0.004409482, NaN, NaN, NaN, 0.0335714, "- N/A -   "
2.66, 14.0357, 0.004451134, NaN, NaN, NaN, 0.0372337, "- N/A -   "
2.69, 14.2716, 0.004492785, NaN, NaN, NaN, 0.04089605, "- N/A -   "
2.72, 14.5075, 0.004542766, NaN, NaN, NaN, 0.04211683, "- N/A -   "
2.75, 14.8614, 0.00458997, NaN, NaN, NaN, 0.04211683, "- N/A -   "
2.78, 15.2152, 0.00463718, NaN, NaN, NaN, 0.0445584, "- N/A -   "
2.81, 15.5691, 0.004687157, NaN, NaN, NaN, 0.0433376, "- N/A -   "
2.84, 16.0409, 0.004745469, NaN, NaN, NaN, 0.04089605, "- N/A -   "
2.87, 16.5126, 0.004798227, NaN, NaN, NaN, 0.0384545, "- N/A -   "
2.9, 16.74854, 0.00484821, NaN, NaN, NaN, 0.0384545, "- N/A -   "
2.93, 17.2203, 0.004903744, NaN, NaN, NaN, 0.03601294, "- N/A -   "
2.96, 17.6921, 0.004956502, NaN, NaN, NaN, 0.0347922, "- N/A -   "
2.99, 18.046, 0.00500648, NaN, NaN, NaN, 0.0347922, "- N/A -   "
3.02, 18.2819, 0.00505924, NaN, NaN, NaN, 0.0335714, "- N/A -   "
3.05, 18.8716, 0.005114777, NaN, NaN, NaN, 0.03112983, "- N/A -   "
3.08, 19.3434, 0.005167535, NaN, NaN, NaN, 0.0299091, "- N/A -   "
3.11, 19.6972, 0.00521752, NaN, NaN, NaN, 0.0299091, "- N/A -   "
3.14, 20.169, 0.00527028, NaN, NaN, NaN, 0.0286883, "- N/A -   "
3.17, 20.6408, 0.00532026, NaN, NaN, NaN, 0.0286883, "- N/A -   "
3.2, 20.99465, 0.00537024, NaN, NaN, NaN, 0.0286883, "- N/A -   "
3.23, 21.3485, 0.00541744, NaN, NaN, NaN, 0.0323506, "- N/A -   "
3.26, 21.7023, 0.00545909, NaN, NaN, NaN, 0.0347922, "- N/A -   "
3.29, 22.0562, 0.005503522, NaN, NaN, NaN, 0.0372337, "- N/A -   "
3.32, 22.41, 0.00555073, NaN, NaN, NaN, 0.0396753, "- N/A -   "
3.35, 22.88181, 0.00559238, NaN, NaN, NaN, 0.04211683, "- N/A -   "
3.38, 23.3536, 0.00563958, NaN, NaN, NaN, 0.0445584, "- N/A -   "
3.41, 23.7074, 0.00568956, NaN, NaN, NaN, 0.0433376, "- N/A -   "
3.44, 24.1792, 0.00573955, NaN, NaN, NaN, 0.0433376, "- N/A -   "
3.47, 24.65102, 0.005786751, NaN, NaN, NaN, 0.0445584, "- N/A -   "
3.5, 25.1228, 0.00583673, NaN, NaN, NaN, 0.0445584, "- N/A -   "
3.53, 25.5946, 0.00588949, NaN, NaN, NaN, 0.0433376, "- N/A -   "
3.56, 26.0664, 0.00594225, NaN, NaN, NaN, 0.04211683, "- N/A -   "
3.59, 26.5382, 0.00599778, NaN, NaN, NaN, 0.0396753, "- N/A -   "
3.6, 26.7741, 0.00602, NaN, NaN, NaN, 0.0384545, "- N/A -   "
3.61, 27.01, 0.00603944, NaN, NaN, NaN, 0.03601294, "- N/A -   "
3.62, 27.1279, 0.00606165, NaN, NaN, NaN, 0.0347922, "- N/A -   "
3.63, 27.3638, 0.00608109, NaN, NaN, NaN, 0.0335714, "- N/A -   "
3.64, 27.4818, 0.00610052, NaN, NaN, NaN, 0.03112983, "- N/A -   "
3.65, 27.5997, 0.00611996, NaN, NaN, NaN, 0.03112983, "- N/A -   "
3.66, 27.8356, 0.006136622, NaN, NaN, NaN, 0.0299091, "- N/A -   "
3.67, 27.95355, 0.00615328, NaN, NaN, NaN, 0.0299091, "- N/A -   "
3.68, 27.95355, 0.00616994, NaN, NaN, NaN, 0.0299091, "- N/A -   "
3.69, 28.1894, 0.006183827, NaN, NaN, NaN, 0.03112983, "- N/A -   "
3.7, 28.3074, 0.006200487, NaN, NaN, NaN, 0.03112983, "- N/A -   "
3.71, 28.42534, 0.00621715, NaN, NaN, NaN, 0.03112983, "- N/A -   "
3.72, 28.54329, 0.006236585, NaN, NaN, NaN, 0.0299091, "- N/A -   "
3.73, 28.6612, 0.00625325, NaN, NaN, NaN, 0.0299091, "- N/A -   "
3.74, 28.7792, 0.00626991, NaN, NaN, NaN, 0.0299091, "- N/A -   "
3.75, 28.89713, 0.00628657, NaN, NaN, NaN, 0.03112983, "- N/A -   "
3.76, 29.0151, 0.00630045, NaN, NaN, NaN, 0.03112983, "- N/A -   "
3.77, 29.133, 0.00631711, NaN, NaN, NaN, 0.03112983, "- N/A -   "
3.78, 29.251, 0.006333771, NaN, NaN, NaN, 0.03112983, "- N/A -   "
3.79, 29.3689, 0.00635043, NaN, NaN, NaN, 0.0323506, "- N/A -   "
3.8, 29.4869, 0.006367092, NaN, NaN, NaN, 0.0323506, "- N/A -   "
3.81, 29.6048, 0.006383753, NaN, NaN, NaN, 0.0323506, "- N/A -   "
3.82, 29.7228, 0.00639764, NaN, NaN, NaN, 0.0323506, "- N/A -   "
3.83, 29.7228, 0.006414297, NaN, NaN, NaN, 0.0323506, "- N/A -   "
3.84, 29.9587, 0.00642818, NaN, NaN, NaN, 0.0335714, "- N/A -   "
3.85, 29.9587, 0.006444841, NaN, NaN, NaN, 0.0335714, "- N/A -   "
3.86, 30.0766, 0.006458725, NaN, NaN, NaN, 0.0347922, "- N/A -   "
3.87, 30.1946, 0.006472609, NaN, NaN, NaN, 0.03601294, "- N/A -   "
3.88, 30.3125, 0.006489269, NaN, NaN, NaN, 0.03601294, "- N/A -   "
3.89, 30.4304, 0.00650593, NaN, NaN, NaN, 0.0372337, "- N/A -   "
3.9, 30.5484, 0.00652259, NaN, NaN, NaN, 0.0372337, "- N/A -   "
3.91, 30.6663, 0.006536474, NaN, NaN, NaN, 0.0372337, "- N/A -   "
3.92, 30.78429, 0.006553135, NaN, NaN, NaN, 0.0372337, "- N/A -   "
3.93, 30.9022, 0.006569795, NaN, NaN, NaN, 0.0372337, "- N/A -   "
3.94, 31.0202, 0.006589232, NaN, NaN, NaN, 0.0372337, "- N/A -   "
3.95, 31.2561, 0.00660867, NaN, NaN, NaN, 0.03601294, "- N/A -   "
3.96, 31.374, 0.00662255, NaN, NaN, NaN, 0.03601294, "- N/A -   "
3.97, 31.492, 0.006641991, NaN, NaN, NaN, 0.0347922, "- N/A -   "
3.98, 31.6099, 0.006658651, NaN, NaN, NaN, 0.0347922, "- N/A -   "
3.99, 31.72787, 0.006672535, NaN, NaN, NaN, 0.0372337, "- N/A -   "
4, 31.8458, 0.006686419, NaN, NaN, NaN, 0.0372337, "- N/A -   "
4.01, 31.8458, 0.006703079, NaN, NaN, NaN, 0.0384545, "- N/A -   "
4.02, 31.9638, 0.006716963, NaN, NaN, NaN, 0.0384545, "- N/A -   "
4.03, 32.08171, 0.006730847, NaN, NaN, NaN, 0.0396753, "- N/A -   "
4.04, 32.1997, 0.00674473, NaN, NaN, NaN, 0.04089605, "- N/A -   "
4.05, 32.1997, 0.006761391, NaN, NaN, NaN, 0.04089605, "- N/A -   "
4.06, 32.4356, 0.006775275, NaN, NaN, NaN, 0.04211683, "- N/A -   "
4.07, 32.5535, 0.006789158, NaN, NaN, NaN, 0.0433376, "- N/A -   "
4.08, 32.5535, 0.006805819, NaN, NaN, NaN, 0.0433376, "- N/A -   "
4.09, 32.7894, 0.00682248, NaN, NaN, NaN, 0.0445584, "- N/A -   "
4.1, 32.7894, 0.00683914, NaN, NaN, NaN, 0.0445584, "- N/A -   "
4.11, 33.02529, 0.006853024, NaN, NaN, NaN, 0.0445584, "- N/A -   "
4.12, 33.1432, 0.00686968, NaN, NaN, NaN, 0.0445584, "- N/A -   "
4.13, 33.1432, 0.006886345, NaN, NaN, NaN, 0.0445584, "- N/A -   "
4.14, 33.2612, 0.00690301, NaN, NaN, NaN, 0.04577916, "- N/A -   "
4.15, 33.49708, 0.006919666, NaN, NaN, NaN, 0.0445584, "- N/A -   "
4.16, 33.61503, 0.0069391, NaN, NaN, NaN, 0.0445584, "- N/A -   "
4.17, 33.8509, 0.00695576, NaN, NaN, NaN, 0.0433376, "- N/A -   "
4.18, 33.8509, 0.006975201, NaN, NaN, NaN, 0.04211683, "- N/A -   "
4.19, 34.2048, 0.006994638, NaN, NaN, NaN, 0.04089605, "- N/A -   "
4.2, 34.2048, 0.007016852, NaN, NaN, NaN, 0.0396753, "- N/A -   "
4.21, 34.4407, 0.00703351, NaN, NaN, NaN, 0.0384545, "- N/A -   "
4.22, 34.55861, 0.00705295, NaN, NaN, NaN, 0.0372337, "- N/A -   "
4.23, 34.6766, 0.00706961, NaN, NaN, NaN, 0.0372337, "- N/A -   "
4.24, 34.7945, 0.00708905, NaN, NaN, NaN, 0.03601294, "- N/A -   "
4.25, 34.7945, 0.007105708, NaN, NaN, NaN, 0.03601294, "- N/A -   "
4.26, 35.0304, 0.00712515, NaN, NaN, NaN, 0.03601294, "- N/A -   "
4.27, 35.1483, 0.007141806, NaN, NaN, NaN, 0.03601294, "- N/A -   "
4.28, 35.3842, 0.00715847, NaN, NaN, NaN, 0.0347922, "- N/A -   "
4.29, 35.50219, 0.007177904, NaN, NaN, NaN, 0.0335714, "- N/A -   "
4.3, 35.6201, 0.007194564, NaN, NaN, NaN, 0.0335714, "- N/A -   "
4.31, 35.6201, 0.007214, NaN, NaN, NaN, 0.0323506, "- N/A -   "
4.32, 35.85603, 0.00723066, NaN, NaN, NaN, 0.0323506, "- N/A -   "
4.33, 35.97398, 0.0072501, NaN, NaN, NaN, 0.03112983, "- N/A -   "
4.34, 36.0919, 0.00726676, NaN, NaN, NaN, 0.03112983, "- N/A -   "
4.35, 36.2099, 0.00728342, NaN, NaN, NaN, 0.03112983, "- N/A -   "
4.36, 36.32782, 0.00730008, NaN, NaN, NaN, 0.03112983, "- N/A -   "
4.37, 36.44577, 0.00731396, NaN, NaN, NaN, 0.0323506, "- N/A -   "
4.38, 36.5637, 0.00733063, NaN, NaN, NaN, 0.0335714, "- N/A -   "
4.39, 36.6817, 0.00734451, NaN, NaN, NaN, 0.0335714, "- N/A -   "
4.4, 36.6817, 0.00736117, NaN, NaN, NaN, 0.0347922, "- N/A -   "
4.41, 36.9176, 0.00737505, NaN, NaN, NaN, 0.0347922, "- N/A -   "
4.42, 37.0355, 0.00739171, NaN, NaN, NaN, 0.0347922, "- N/A -   "
4.43, 37.15345, 0.00740837, NaN, NaN, NaN, 0.0347922, "- N/A -   "
4.44, 37.3893, 0.00742503, NaN, NaN, NaN, 0.0347922, "- N/A -   "
4.45, 37.3893, 0.0074417, NaN, NaN, NaN, 0.03601294, "- N/A -   "
4.46, 37.5073, 0.00745558, NaN, NaN, NaN, 0.03601294, "- N/A -   "
4.47, 37.74319, 0.00747224, NaN, NaN, NaN, 0.03601294, "- N/A -   "
4.48, 37.8611, 0.0074889, NaN, NaN, NaN, 0.03601294, "- N/A -   "
4.49, 37.9791, 0.00750556, NaN, NaN, NaN, 0.03601294, "- N/A -   "
4.5, 38.215, 0.007525, NaN, NaN, NaN, 0.0347922, "- N/A -   "
4.51, 38.3329, 0.00754166, NaN, NaN, NaN, 0.0347922, "- N/A -   "
4.54, 38.68677, 0.007594417, NaN, NaN, NaN, 0.0335714, "- N/A -   "
4.57, 39.3945, 0.00764995, NaN, NaN, NaN, 0.0323506, "- N/A -   "
4.6, 39.7483, 0.00769716, NaN, NaN, NaN, 0.0323506, "- N/A -   "
4.63, 40.10214, 0.00774158, NaN, NaN, NaN, 0.0347922, "- N/A -   "
4.66, 40.456, 0.00778601, NaN, NaN, NaN, 0.0372337, "- N/A -   "
4.69, 40.8098, 0.007833217, NaN, NaN, NaN, 0.0396753, "- N/A -   "
4.72, 41.16367, 0.007877645, NaN, NaN, NaN, 0.04211683, "- N/A -   "
4.75, 41.7534, 0.00792485, NaN, NaN, NaN, 0.04211683, "- N/A -   "
4.78, 42.3431, 0.007980385, NaN, NaN, NaN, 0.0396753, "- N/A -   "
4.81, 42.8149, 0.008030367, NaN, NaN, NaN, 0.0396753, "- N/A -   "
4.84, 43.2867, 0.008080348, NaN, NaN, NaN, 0.04089605, "- N/A -   "
4.87, 43.87646, 0.008133106, NaN, NaN, NaN, 0.0396753, "- N/A -   "
4.9, 44.4662, 0.008188642, NaN, NaN, NaN, 0.03601294, "- N/A -   "
4.93, 44.93799, 0.0082414, NaN, NaN, NaN, 0.0347922, "- N/A -   "
4.96, 45.40978, 0.008291381, NaN, NaN, NaN, 0.0347922, "- N/A -   "
4.99, 45.8816, 0.008341363, NaN, NaN, NaN, 0.0347922, "- N/A -   "
[...]
18.83, 513.7366, 0.03141617, NaN, NaN, NaN, 0.03112983, "- N/A -   "
18.9, 516.5753, 0.03153002, NaN, NaN, NaN, 0.0335714, "- N/A -   "
18.97, 519.532, 0.03164942, NaN, NaN, NaN, 0.0323506, "- N/A -   "
19.04, 522.3711, 0.0317577, NaN, NaN, NaN, 0.0347922, "- N/A -   "
19.11, 524.855, 0.0318577, NaN, NaN, NaN, 0.0433376, "- N/A -   "
19.18, 527.6937, 0.0319687, NaN, NaN, NaN, 0.0445584, "- N/A -   "
19.25, 530.769, 0.0320881, NaN, NaN, NaN, 0.0445584, "- N/A -   "
19.32, 534.317, 0.0322187, NaN, NaN, NaN, 0.0384545, "- N/A -   "
19.39, 537.6293, 0.0323464, NaN, NaN, NaN, 0.0323506, "- N/A -   "
19.46, 540.468, 0.032463, NaN, NaN, NaN, 0.0335714, "- N/A -   "
19.53, 543.7799, 0.03258796, NaN, NaN, NaN, 0.0299091, "- N/A -   "
19.6, 546.7369, 0.0327018, NaN, NaN, NaN, 0.0299091, "- N/A -   "
19.67, 549.3391, 0.0328101, NaN, NaN, NaN, 0.0347922, "- N/A -   "
19.74, 551.823, 0.03290729, NaN, NaN, NaN, 0.0433376, "- N/A -   "
19.81, 554.4252, 0.0330128, NaN, NaN, NaN, 0.04699994, "- N/A -   "
19.88, 557.6188, 0.0331322, NaN, NaN, NaN, 0.04577916, "- N/A -   "
19.95, 561.285, 0.0332683, NaN, NaN, NaN, 0.0372337, "- N/A -   "
20.02, 564.597, 0.033396, NaN, NaN, NaN, 0.0323506, "- N/A -   "
20.09, 567.7909, 0.0335182, NaN, NaN, NaN, 0.0299091, "- N/A -   "
20.16, 571.1028, 0.0336431, NaN, NaN, NaN, 0.0262467, "- N/A -   "
20.23, 573.823, 0.0337542, NaN, NaN, NaN, 0.0299091, "- N/A -   "
20.3, 576.5437, 0.03386249, NaN, NaN, NaN, 0.0323506, "- N/A -   "
20.37, 579.264, 0.033968, NaN, NaN, NaN, 0.0372337, "- N/A -   "
20.44, 581.9846, 0.0340707, NaN, NaN, NaN, 0.0433376, "- N/A -   "
20.51, 585.0599, 0.0341846, NaN, NaN, NaN, 0.0445584, "- N/A -   "
20.58, 588.135, 0.034304, NaN, NaN, NaN, 0.0433376, "- N/A -   "
20.65, 591.4471, 0.0344289, NaN, NaN, NaN, 0.0396753, "- N/A -   "
20.72, 595.1138, 0.0345678, NaN, NaN, NaN, 0.0299091, "- N/A -   "
20.79, 598.3073, 0.03468441, NaN, NaN, NaN, 0.0299091, "- N/A -   "
20.86, 601.1461, 0.0347983, NaN, NaN, NaN, 0.03112983, "- N/A -   "
20.93, 603.985, 0.0349065, NaN, NaN, NaN, 0.0347922, "- N/A -   "
21, 606.9419, 0.03501484, NaN, NaN, NaN, 0.0384545, "- N/A -   "
21.07, 609.899, 0.0351315, NaN, NaN, NaN, 0.0396753, "- N/A -   "
21.14, 612.6193, 0.03523976, NaN, NaN, NaN, 0.0433376, "- N/A -   "
21.21, 615.576, 0.03535083, NaN, NaN, NaN, 0.0445584, "- N/A -   "
21.28, 619.2431, 0.0354841, NaN, NaN, NaN, 0.0372337, "- N/A -   "
21.35, 622.7915, 0.0356174, NaN, NaN, NaN, 0.03112983, "- N/A -   "
21.42, 625.8668, 0.0357368, NaN, NaN, NaN, 0.0299091, "- N/A -   "
21.49, 628.7055, 0.03584509, NaN, NaN, NaN, 0.0347922, "- N/A -   "
21.56, 631.544, 0.03595616, NaN, NaN, NaN, 0.0372337, "- N/A -   "
21.63, 635.0927, 0.0360839, NaN, NaN, NaN, 0.03112983, "- N/A -   "
21.7, 637.6949, 0.0361894, NaN, NaN, NaN, 0.0372337, "- N/A -   "
21.77, 640.6519, 0.0362977, NaN, NaN, NaN, 0.04089605, "- N/A -   "
21.84, 643.491, 0.03641155, NaN, NaN, NaN, 0.04089605, "- N/A -   "
21.91, 646.6842, 0.0365254, NaN, NaN, NaN, 0.04211683, "- N/A -   "
21.98, 649.9961, 0.03665035, NaN, NaN, NaN, 0.0396753, "- N/A -   "
22.05, 652.953, 0.0367642, NaN, NaN, NaN, 0.04089605, "- N/A -   "
22.12, 656.1467, 0.0368836, NaN, NaN, NaN, 0.0396753, "- N/A -   "
22.19, 659.459, 0.03700855, NaN, NaN, NaN, 0.0347922, "- N/A -   "
22.26, 662.7704, 0.03713073, NaN, NaN, NaN, 0.0323506, "- N/A -   "
22.33, 665.7274, 0.0372446, NaN, NaN, NaN, 0.0335714, "- N/A -   "
22.4, 668.4479, 0.0373556, NaN, NaN, NaN, 0.03601294, "- N/A -   "
22.47, 671.405, 0.0374667, NaN, NaN, NaN, 0.0396753, "- N/A -   "
22.54, 674.362, 0.03758056, NaN, NaN, NaN, 0.0396753, "- N/A -   "
22.61, 677.0824, 0.0376861, NaN, NaN, NaN, 0.04577916, "- N/A -   "
22.68, 680.3943, 0.0378083, NaN, NaN, NaN, 0.04211683, "- N/A -   "
22.75, 684.1792, 0.0379471, NaN, NaN, NaN, 0.0335714, "- N/A -   "
22.82, 687.2546, 0.03806649, NaN, NaN, NaN, 0.03112983, "- N/A -   "
22.89, 690.2116, 0.0381803, NaN, NaN, NaN, 0.0335714, "- N/A -   "
22.96, 693.6417, 0.03830529, NaN, NaN, NaN, 0.0286883, "- N/A -   "
23.03, 696.835, 0.0384219, NaN, NaN, NaN, 0.0286883, "- N/A -   "
23.1, 699.3192, 0.0385274, NaN, NaN, NaN, 0.0347922, "- N/A -   "
23.17, 701.8031, 0.0386246, NaN, NaN, NaN, 0.0433376, "- N/A -   "
23.24, 704.642, 0.03873013, NaN, NaN, NaN, 0.04699994, "- N/A -   "
23.31, 708.1903, 0.0388579, NaN, NaN, NaN, 0.0433376, "- N/A -   "
23.38, 711.502, 0.0389828, NaN, NaN, NaN, 0.0384545, "- N/A -   "
23.45, 714.814, 0.03910777, NaN, NaN, NaN, 0.03601294, "- N/A -   "
23.52, 718.008, 0.0392272, NaN, NaN, NaN, 0.0335714, "- N/A -   "
23.59, 721.319, 0.0393549, NaN, NaN, NaN, 0.0299091, "- N/A -   "
23.66, 724.513, 0.0394715, NaN, NaN, NaN, 0.0299091, "- N/A -   "
23.73, 727.115, 0.03957149, NaN, NaN, NaN, 0.03601294, "- N/A -   "
23.8, 729.5991, 0.0396715, NaN, NaN, NaN, 0.0433376, "- N/A -   "
23.87, 732.556, 0.0397881, NaN, NaN, NaN, 0.0445584, "- N/A -   "
23.94, 735.6314, 0.0399047, NaN, NaN, NaN, 0.0433376, "- N/A -   "
24.01, 738.943, 0.0400241, NaN, NaN, NaN, 0.04211683, "- N/A -   "
24.08, 742.61, 0.04016016, NaN, NaN, NaN, 0.0335714, "- N/A -   "
24.15, 746.2767, 0.0402934, NaN, NaN, NaN, 0.0274675, "- N/A -   "
24.22, 749.1154, 0.0404045, NaN, NaN, NaN, 0.0286883, "- N/A -   "
24.29, 752.072, 0.0405156, NaN, NaN, NaN, 0.0323506, "- N/A -   "
24.36, 755.0295, 0.0406267, NaN, NaN, NaN, 0.0347922, "- N/A -   "
24.43, 758.1048, 0.0407405, NaN, NaN, NaN, 0.03601294, "- N/A -   "
24.5, 760.707, 0.040846, NaN, NaN, NaN, 0.0396753, "- N/A -   "
24.57, 763.5457, 0.04095431, NaN, NaN, NaN, 0.0433376, "- N/A -   "
24.64, 766.739, 0.04106816, NaN, NaN, NaN, 0.0445584, "- N/A -   "
24.71, 770.5243, 0.0412042, NaN, NaN, NaN, 0.03601294, "- N/A -   "
24.78, 774.0727, 0.0413347, NaN, NaN, NaN, 0.0299091, "- N/A -   "
24.85, 776.675, 0.0414375, NaN, NaN, NaN, 0.0372337, "- N/A -   "
24.92, 779.7502, 0.0415541, NaN, NaN, NaN, 0.0372337, "- N/A -   "
24.99, 783.1803, 0.041679, NaN, NaN, NaN, 0.0323506, "- N/A -   "
25.06, 786.3739, 0.0417984, NaN, NaN, NaN, 0.03112983, "- N/A -   "
25.13, 789.213, 0.04190396, NaN, NaN, NaN, 0.03601294, "- N/A -   "
25.2, 791.6966, 0.0420039, NaN, NaN, NaN, 0.0433376, "- N/A -   "
25.27, 795.245, 0.04213443, NaN, NaN, NaN, 0.0372337, "- N/A -   "
25.34, 798.439, 0.0422511, NaN, NaN, NaN, 0.0372337, "- N/A -   "
25.41, 801.6321, 0.0423705, NaN, NaN, NaN, 0.03601294, "- N/A -   "
25.48, 804.707, 0.0424899, NaN, NaN, NaN, 0.0347922, "- N/A -   "
25.55, 808.1376, 0.04261481, NaN, NaN, NaN, 0.03112983, "- N/A -   "
25.62, 811.3312, 0.042737, NaN, NaN, NaN, 0.0299091, "- N/A -   "
25.69, 814.643, 0.04285361, NaN, NaN, NaN, 0.0286883, "- N/A -   "
25.76, 817.3635, 0.0429619, NaN, NaN, NaN, 0.0323506, "- N/A -   "
25.83, 820.4388, 0.043073, NaN, NaN, NaN, 0.0347922, "- N/A -   "
25.9, 822.9227, 0.0431757, NaN, NaN, NaN, 0.0433376, "- N/A -   "
25.97, 825.998, 0.04328678, NaN, NaN, NaN, 0.0445584, "- N/A -   "
26.04, 828.955, 0.0433951, NaN, NaN, NaN, 0.0482207, "- N/A -   "
26.11, 832.6217, 0.04352836, NaN, NaN, NaN, 0.04089605, "- N/A -   "
26.18, 836.407, 0.0436644, NaN, NaN, NaN, 0.0323506, "- N/A -   "
26.25, 839.3637, 0.0437755, NaN, NaN, NaN, 0.0347922, "- N/A -   "
26.32, 842.6756, 0.0438949, NaN, NaN, NaN, 0.0335714, "- N/A -   "
26.39, 845.9874, 0.0440254, NaN, NaN, NaN, 0.0274675, "- N/A -   "
26.46, 848.9445, 0.04413647, NaN, NaN, NaN, 0.03112983, "- N/A -   "
26.53, 851.4284, 0.0442337, NaN, NaN, NaN, 0.0384545, "- N/A -   "
26.6, 854.0306, 0.04433084, NaN, NaN, NaN, 0.04699994, "- N/A -   "
26.67, 857.2241, 0.0444502, NaN, NaN, NaN, 0.04577916, "- N/A -   "
26.74, 860.7725, 0.04457797, NaN, NaN, NaN, 0.04089605, "- N/A -   "
26.81, 864.2027, 0.0447057, NaN, NaN, NaN, 0.0372337, "- N/A -   "
26.88, 867.751, 0.0448307, NaN, NaN, NaN, 0.0323506, "- N/A -   "
26.95, 871.1813, 0.0449584, NaN, NaN, NaN, 0.0274675, "- N/A -   "
27.02, 874.257, 0.04507501, NaN, NaN, NaN, 0.0274675, "- N/A -   "
27.09, 877.0953, 0.0451833, NaN, NaN, NaN, 0.03112983, "- N/A -   "
27.16, 879.9341, 0.04528882, NaN, NaN, NaN, 0.03601294, "- N/A -   "
27.23, 882.536, 0.0453916, NaN, NaN, NaN, 0.0433376, "- N/A -   "
27.3, 885.375, 0.04549708, NaN, NaN, NaN, 0.04699994, "- N/A -   "
27.37, 888.6868, 0.0456193, NaN, NaN, NaN, 0.04577916, "- N/A -   "
27.44, 892.117, 0.0457387, NaN, NaN, NaN, 0.0433376, "- N/A -   "
27.51, 895.902, 0.0458747, NaN, NaN, NaN, 0.0347922, "- N/A -   "
27.58, 899.3321, 0.0460024, NaN, NaN, NaN, 0.0299091, "- N/A -   "
27.65, 902.2891, 0.0461163, NaN, NaN, NaN, 0.03112983, "- N/A -   "
27.72, 905.483, 0.0462274, NaN, NaN, NaN, 0.0335714, "- N/A -   "
27.732, 906.074, 0.0462468, NaN, NaN, NaN, 0.0347922, "- N/A -   "