File: 2_Tensile_Data/Hamel_ForceTest_Bolt4_Test2.csv
Time, Load (lb), Position (in), AxialStrain (in), TransverseStrain (in), Auxiliary (), Control Out (V), Stress (psi)
0.0, 1.29742, 0.0, NaN, NaN, NaN, 0.09705182, "- N/A -   "
0.01, 1.76921, 3.054427E-5, NaN, NaN, NaN, 0.09949338, "- N/A -   "
0.02, 2.241, 6.386529E-5, NaN, NaN, NaN, 0.09338949, "- N/A -   "
0.03, 2.712792, 9.440956E-5, NaN, NaN, NaN, 0.08606482, "- N/A -   "
0.04, 3.06663, 0.000124954, NaN, NaN, NaN, 0.0799609, "- N/A -   "
0.05, 3.53842, 0.000152721, NaN, NaN, NaN, 0.0750778, "- N/A -   "
0.06, 4.010214, 0.000180489, NaN, NaN, NaN, 0.0701947, "- N/A -   "
0.07, 4.246109, 0.000202703, NaN, NaN, NaN, 0.06775316, "- N/A -   "
0.08, 4.717899, 0.000224917, NaN, NaN, NaN, 0.0653116, "- N/A -   "
0.09, 4.83585, 2.471309E-4, NaN, NaN, NaN, 0.0640908, "- N/A -   "
0.1, 5.307636, 0.000266568, NaN, NaN, NaN, 0.06164927, "- N/A -   "
0.11, 5.425584, 0.000286005, NaN, NaN, NaN, 0.0604285, "- N/A -   "
0.12, 5.779426, 3.054427E-4, NaN, NaN, NaN, 0.0604285, "- N/A -   "
0.13, 6.01532, 0.00032488, NaN, NaN, NaN, 0.0592077, "- N/A -   "
0.14, 6.251216, 0.00034154, NaN, NaN, NaN, 0.0579869, "- N/A -   "
0.15, 6.487111, 3.637545E-4, NaN, NaN, NaN, 0.05676616, "- N/A -   "
0.16, 6.723006, 0.000383192, NaN, NaN, NaN, 0.0555454, "- N/A -   "
0.17, 7.07685, 0.000399852, NaN, NaN, NaN, 0.0543246, "- N/A -   "
0.18, 7.312743, 4.192895E-4, NaN, NaN, NaN, 0.0531038, "- N/A -   "
0.19, 7.548638, 4.387268E-4, NaN, NaN, NaN, 0.05188305, "- N/A -   "
0.2, 7.784533, 4.553873E-4, NaN, NaN, NaN, 0.05188305, "- N/A -   "
0.21, 8.020428, 0.000474825, NaN, NaN, NaN, 0.05066227, "- N/A -   "
0.22, 8.256323, 4.942618E-4, NaN, NaN, NaN, 0.05066227, "- N/A -   "
0.23, 8.492218, 0.000510922, NaN, NaN, NaN, 0.0494415, "- N/A -   "
0.24, 8.728113, 0.000527583, NaN, NaN, NaN, 0.0494415, "- N/A -   "
0.25, 9.081955, 5.442434E-4, NaN, NaN, NaN, 0.0494415, "- N/A -   "
0.26, 9.199903, 0.000560904, NaN, NaN, NaN, 0.0494415, "- N/A -   "
0.27, 9.435798, 0.000577564, NaN, NaN, NaN, 0.0494415, "- N/A -   "
0.28, 9.671693, 5.942249E-4, NaN, NaN, NaN, 0.0494415, "- N/A -   "
0.29, 9.78964, 6.108854E-4, NaN, NaN, NaN, 0.0494415, "- N/A -   "
0.3, 10.0255, 0.000627546, NaN, NaN, NaN, 0.0494415, "- N/A -   "
0.31, 10.26143, 6.442064E-4, NaN, NaN, NaN, 0.0494415, "- N/A -   "
0.32, 10.6153, 6.636437E-4, NaN, NaN, NaN, 0.0482207, "- N/A -   "
0.33, 10.8512, 6.830809E-4, NaN, NaN, NaN, 0.04699994, "- N/A -   "
0.34, 11.0871, 7.025182E-4, NaN, NaN, NaN, 0.04577916, "- N/A -   "
0.35, 11.323, 7.219555E-4, NaN, NaN, NaN, 0.04577916, "- N/A -   "
0.36, 11.6768, 7.38616E-4, NaN, NaN, NaN, 0.0445584, "- N/A -   "
0.37, 11.7947, 0.000758053, NaN, NaN, NaN, 0.0433376, "- N/A -   "
0.41, 12.8563, 8.358023E-4, NaN, NaN, NaN, 0.0384545, "- N/A -   "
0.45, 14.0357, 9.218816E-4, NaN, NaN, NaN, 0.03112983, "- N/A -   "
0.49, 14.8614, 9.885236E-4, NaN, NaN, NaN, 0.0299091, "- N/A -   "
0.53, 15.805, 0.00105517, NaN, NaN, NaN, 0.03112983, "- N/A -   "
0.57, 16.6306, 0.00112181, NaN, NaN, NaN, 0.0299091, "- N/A -   "
0.61, 17.4562, 0.00118012, NaN, NaN, NaN, 0.0335714, "- N/A -   "
0.65, 18.2819, 0.00124398, NaN, NaN, NaN, 0.03601294, "- N/A -   "
0.69, 19.2254, 0.00130507, NaN, NaN, NaN, 0.0372337, "- N/A -   "
0.73, 20.05107, 0.00137172, NaN, NaN, NaN, 0.0384545, "- N/A -   "
0.77, 20.99465, 0.00143836, NaN, NaN, NaN, 0.0372337, "- N/A -   "
0.81, 21.93823, 0.00150222, NaN, NaN, NaN, 0.0384545, "- N/A -   "
0.85, 22.6459, 0.00156053, NaN, NaN, NaN, 0.04211683, "- N/A -   "
0.89, 23.4715, 0.001621623, NaN, NaN, NaN, 0.0445584, "- N/A -   "
0.93, 24.29718, 0.00168549, NaN, NaN, NaN, 0.04699994, "- N/A -   "
0.97, 25.1228, 0.00175491, NaN, NaN, NaN, 0.04577916, "- N/A -   "
1.01, 26.18434, 0.00183266, NaN, NaN, NaN, 0.04089605, "- N/A -   "
1.05, 27.2459, 0.00190763, NaN, NaN, NaN, 0.03601294, "- N/A -   "
1.09, 28.3074, 0.001982601, NaN, NaN, NaN, 0.0335714, "- N/A -   "
1.13, 29.251, 0.00206035, NaN, NaN, NaN, 0.0286883, "- N/A -   "
1.17, 30.1946, 0.00212422, NaN, NaN, NaN, 0.0299091, "- N/A -   "
1.21, 30.9022, 0.002182527, NaN, NaN, NaN, 0.0323506, "- N/A -   "
1.25, 31.72787, 0.00224362, NaN, NaN, NaN, 0.0347922, "- N/A -   "
1.29, 32.67145, 0.00231303, NaN, NaN, NaN, 0.0335714, "- N/A -   "
1.33, 33.73298, 0.00238523, NaN, NaN, NaN, 0.03112983, "- N/A -   "
1.37, 34.55861, 0.00245187, NaN, NaN, NaN, 0.0323506, "- N/A -   "
1.41, 35.50219, 0.00251296, NaN, NaN, NaN, 0.0335714, "- N/A -   "
1.45, 36.2099, 0.00257127, NaN, NaN, NaN, 0.0372337, "- N/A -   "
1.49, 36.79961, 0.00262681, NaN, NaN, NaN, 0.04211683, "- N/A -   "
1.53, 37.74319, 0.00269067, NaN, NaN, NaN, 0.0433376, "- N/A -   "
1.57, 38.5688, 0.00276009, NaN, NaN, NaN, 0.04211683, "- N/A -   "
1.61, 39.6304, 0.00283229, NaN, NaN, NaN, 0.0396753, "- N/A -   "
1.65, 40.456, 0.002898929, NaN, NaN, NaN, 0.0396753, "- N/A -   "
1.69, 41.2816, 0.002965571, NaN, NaN, NaN, 0.0396753, "- N/A -   "
1.73, 42.3431, 0.00303777, NaN, NaN, NaN, 0.0384545, "- N/A -   "
1.77, 43.2867, 0.00310719, NaN, NaN, NaN, 0.03601294, "- N/A -   "
1.81, 44.2303, 0.0031766, NaN, NaN, NaN, 0.0347922, "- N/A -   "
1.85, 45.05593, 0.003243246, NaN, NaN, NaN, 0.0347922, "- N/A -   "
1.89, 46.11746, 0.003315442, NaN, NaN, NaN, 0.0335714, "- N/A -   "
1.93, 47.061, 0.003382084, NaN, NaN, NaN, 0.0323506, "- N/A -   "
1.97, 47.65078, 0.00344595, NaN, NaN, NaN, 0.0347922, "- N/A -   "
2.01, 48.47641, 0.00350981, NaN, NaN, NaN, 0.0347922, "- N/A -   "
2.05, 49.41999, 0.00357923, NaN, NaN, NaN, 0.0347922, "- N/A -   "
2.09, 50.2456, 0.0036431, NaN, NaN, NaN, 0.0347922, "- N/A -   "
2.13, 51.0713, 0.00370974, NaN, NaN, NaN, 0.0347922, "- N/A -   "
2.17, 52.01483, 0.00377361, NaN, NaN, NaN, 0.03601294, "- N/A -   "
2.21, 52.84047, 0.00383747, NaN, NaN, NaN, 0.0372337, "- N/A -   "
2.25, 53.6661, 0.00390134, NaN, NaN, NaN, 0.0396753, "- N/A -   "
2.29, 54.4917, 0.00396242, NaN, NaN, NaN, 0.04089605, "- N/A -   "
2.33, 55.3174, 0.00402351, NaN, NaN, NaN, 0.0433376, "- N/A -   "
2.37, 56.2609, 0.00409016, NaN, NaN, NaN, 0.0433376, "- N/A -   "
2.41, 57.20452, 0.00416235, NaN, NaN, NaN, 0.04089605, "- N/A -   "
2.45, 58.26605, 0.00423732, NaN, NaN, NaN, 0.0384545, "- N/A -   "
2.49, 59.0917, 0.004312296, NaN, NaN, NaN, 0.0347922, "- N/A -   "
2.53, 60.0353, 0.004381715, NaN, NaN, NaN, 0.0323506, "- N/A -   "
2.57, 60.8609, 0.00444558, NaN, NaN, NaN, 0.0335714, "- N/A -   "
2.61, 61.6865, 0.004515, NaN, NaN, NaN, 0.0323506, "- N/A -   "
2.65, 62.7481, 0.004584417, NaN, NaN, NaN, 0.03112983, "- N/A -   "
2.69, 63.5737, 0.004656613, NaN, NaN, NaN, 0.0286883, "- N/A -   "
2.73, 64.3993, 0.00472881, NaN, NaN, NaN, 0.0274675, "- N/A -   "
2.77, 65.22495, 0.004792674, NaN, NaN, NaN, 0.0274675, "- N/A -   "
2.81, 65.81469, 0.00484821, NaN, NaN, NaN, 0.0323506, "- N/A -   "
2.85, 66.52237, 0.00490652, NaN, NaN, NaN, 0.03601294, "- N/A -   "
2.89, 66.99416, 0.004962056, NaN, NaN, NaN, 0.04089605, "- N/A -   "
2.93, 67.81979, 0.005023144, NaN, NaN, NaN, 0.0445584, "- N/A -   "
2.97, 68.7634, 0.005087009, NaN, NaN, NaN, 0.0445584, "- N/A -   "
3.01, 69.47106, 0.005150875, NaN, NaN, NaN, 0.04577916, "- N/A -   "
3.05, 70.29669, 0.00522029, NaN, NaN, NaN, 0.0445584, "- N/A -   "
3.09, 71.4762, 0.00530082, NaN, NaN, NaN, 0.0384545, "- N/A -   "
3.13, 72.1838, 0.00537024, NaN, NaN, NaN, 0.0372337, "- N/A -   "
3.17, 73.2454, 0.00544521, NaN, NaN, NaN, 0.0347922, "- N/A -   "
3.21, 74.071, 0.005514629, NaN, NaN, NaN, 0.0335714, "- N/A -   "
3.25, 74.8966, 0.005584048, NaN, NaN, NaN, 0.0323506, "- N/A -   "
3.29, 75.8402, 0.00565347, NaN, NaN, NaN, 0.0299091, "- N/A -   "
3.33, 76.6659, 0.00572289, NaN, NaN, NaN, 0.0286883, "- N/A -   "
3.37, 77.49149, 0.00578953, NaN, NaN, NaN, 0.0286883, "- N/A -   "
3.41, 78.19917, 0.00585617, NaN, NaN, NaN, 0.0299091, "- N/A -   "
3.45, 78.90686, 0.005914482, NaN, NaN, NaN, 0.0323506, "- N/A -   "
3.49, 79.61454, 0.00597002, NaN, NaN, NaN, 0.0372337, "- N/A -   "
3.53, 80.32223, 0.006031105, NaN, NaN, NaN, 0.04211683, "- N/A -   "
3.57, 81.14786, 0.00609219, NaN, NaN, NaN, 0.0433376, "- N/A -   "
3.61, 81.97349, 0.00615884, NaN, NaN, NaN, 0.0433376, "- N/A -   "
3.65, 82.91707, 0.006225478, NaN, NaN, NaN, 0.0433376, "- N/A -   "
3.69, 83.6248, 0.006289343, NaN, NaN, NaN, 0.04577916, "- N/A -   "
3.73, 84.56834, 0.006355985, NaN, NaN, NaN, 0.0445584, "- N/A -   "
3.77, 85.51192, 0.00642818, NaN, NaN, NaN, 0.04211683, "- N/A -   "
3.81, 86.57345, 0.00650593, NaN, NaN, NaN, 0.0372337, "- N/A -   "
3.85, 87.51702, 0.006583679, NaN, NaN, NaN, 0.0335714, "- N/A -   "
3.89, 88.57855, 0.006653098, NaN, NaN, NaN, 0.03112983, "- N/A -   "
3.93, 89.40418, 0.00672252, NaN, NaN, NaN, 0.0299091, "- N/A -   "
3.97, 90.22981, 0.00679194, NaN, NaN, NaN, 0.0299091, "- N/A -   "
4.01, 90.9375, 0.0068558, NaN, NaN, NaN, 0.03112983, "- N/A -   "
4.05, 91.88108, 0.006916889, NaN, NaN, NaN, 0.0323506, "- N/A -   "
4.09, 92.70671, 0.00698075, NaN, NaN, NaN, 0.0335714, "- N/A -   "
4.13, 93.41439, 0.007041843, NaN, NaN, NaN, 0.03601294, "- N/A -   "
4.17, 94.47592, 0.00711126, NaN, NaN, NaN, 0.0347922, "- N/A -   "
4.21, 95.18361, 0.00716957, NaN, NaN, NaN, 0.0384545, "- N/A -   "
4.25, 96.12719, 0.00723066, NaN, NaN, NaN, 0.04089605, "- N/A -   "
4.29, 96.83487, 0.00729175, NaN, NaN, NaN, 0.0445584, "- N/A -   "
4.33, 97.6605, 0.00735562, NaN, NaN, NaN, 0.0445584, "- N/A -   "
4.37, 98.60408, 0.00741948, NaN, NaN, NaN, 0.04699994, "- N/A -   "
4.41, 99.66561, 0.00749168, NaN, NaN, NaN, 0.0433376, "- N/A -   "
4.45, 100.727, 0.00756943, NaN, NaN, NaN, 0.0396753, "- N/A -   "
4.49, 101.789, 0.00764162, NaN, NaN, NaN, 0.03601294, "- N/A -   "
4.53, 102.968, 0.007716594, NaN, NaN, NaN, 0.0323506, "- N/A -   "
4.57, 103.912, 0.00778601, NaN, NaN, NaN, 0.03112983, "- N/A -   "
4.61, 104.737, 0.007849878, NaN, NaN, NaN, 0.0323506, "- N/A -   "
4.65, 105.563, 0.007910966, NaN, NaN, NaN, 0.0347922, "- N/A -   "
4.69, 106.389, 0.007977608, NaN, NaN, NaN, 0.03601294, "- N/A -   "
4.73, 107.568, 0.008047027, NaN, NaN, NaN, 0.0335714, "- N/A -   "
4.77, 108.394, 0.008116446, NaN, NaN, NaN, 0.0323506, "- N/A -   "
4.81, 109.3373, 0.008183088, NaN, NaN, NaN, 0.0323506, "- N/A -   "
4.85, 110.281, 0.008244176, NaN, NaN, NaN, 0.03601294, "- N/A -   "
4.89, 110.989, 0.008302488, NaN, NaN, NaN, 0.0384545, "- N/A -   "
4.93, 111.932, 0.0083608, NaN, NaN, NaN, 0.04211683, "- N/A -   "
4.97, 112.994, 0.008427442, NaN, NaN, NaN, 0.04211683, "- N/A -   "
5.01, 113.937, 0.008496861, NaN, NaN, NaN, 0.04089605, "- N/A -   "
5.05, 114.881, 0.008560726, NaN, NaN, NaN, 0.04211683, "- N/A -   "
5.09, 116.06, 0.008632922, NaN, NaN, NaN, 0.0396753, "- N/A -   "
5.13, 117.122, 0.008705118, NaN, NaN, NaN, 0.0372337, "- N/A -   "
5.17, 118.183, 0.008771759, NaN, NaN, NaN, 0.0372337, "- N/A -   "
5.21, 119.127, 0.008838401, NaN, NaN, NaN, 0.0372337, "- N/A -   "
5.25, 120.071, 0.00890782, NaN, NaN, NaN, 0.0372337, "- N/A -   "
5.29, 121.132, 0.008977239, NaN, NaN, NaN, 0.0347922, "- N/A -   "
5.33, 122.194, 0.009046658, NaN, NaN, NaN, 0.0335714, "- N/A -   "
5.37, 123.373, 0.009118853, NaN, NaN, NaN, 0.0323506, "- N/A -   "
5.41, 124.435, 0.009188272, NaN, NaN, NaN, 0.03112983, "- N/A -   "
5.45, 125.26, 0.00924936, NaN, NaN, NaN, 0.0323506, "- N/A -   "
5.49, 126.322, 0.009316003, NaN, NaN, NaN, 0.0323506, "- N/A -   "
5.53, 127.383, 0.009388198, NaN, NaN, NaN, 0.03112983, "- N/A -   "
5.57, 128.327, 0.009452064, NaN, NaN, NaN, 0.03112983, "- N/A -   "
5.61, 129.152, 0.009507598, NaN, NaN, NaN, 0.03601294, "- N/A -   "
5.65, 129.978, 0.00956591, NaN, NaN, NaN, 0.0396753, "- N/A -   "
5.69, 130.922, 0.009626999, NaN, NaN, NaN, 0.04211683, "- N/A -   "
5.73, 132.101, 0.00969364, NaN, NaN, NaN, 0.04211683, "- N/A -   "
5.77, 132.9268, 0.00975473, NaN, NaN, NaN, 0.0445584, "- N/A -   "
5.81, 133.988, 0.009821371, NaN, NaN, NaN, 0.0445584, "- N/A -   "
5.85, 135.286, 0.009893566, NaN, NaN, NaN, 0.04211683, "- N/A -   "
5.89, 136.583, 0.009974092, NaN, NaN, NaN, 0.03601294, "- N/A -   "
5.93, 137.8806, 0.0100491, NaN, NaN, NaN, 0.0323506, "- N/A -   "
5.97, 138.942, 0.0101185, NaN, NaN, NaN, 0.0323506, "- N/A -   "
5.99, 139.414, 0.010149, NaN, NaN, NaN, 0.0323506, "- N/A -   "
6, 139.65, 0.0101657, NaN, NaN, NaN, 0.0323506, "- N/A -   "
6.01, 139.8857, 0.0101823, NaN, NaN, NaN, 0.0323506, "- N/A -   "
6.02, 140.24, 0.010199, NaN, NaN, NaN, 0.0323506, "- N/A -   "
6.03, 140.475, 0.0102157, NaN, NaN, NaN, 0.0323506, "- N/A -   "
6.04, 140.711, 0.01023233, NaN, NaN, NaN, 0.0323506, "- N/A -   "
6.05, 141.065, 0.010249, NaN, NaN, NaN, 0.0323506, "- N/A -   "
6.06, 141.301, 0.0102657, NaN, NaN, NaN, 0.0323506, "- N/A -   "
6.07, 141.537, 0.0102823, NaN, NaN, NaN, 0.0323506, "- N/A -   "
6.08, 141.773, 0.0103017, NaN, NaN, NaN, 0.03112983, "- N/A -   "
6.09, 142.1267, 0.0103212, NaN, NaN, NaN, 0.03112983, "- N/A -   "
6.1, 142.481, 0.0103406, NaN, NaN, NaN, 0.0299091, "- N/A -   "
6.11, 142.716, 0.0103573, NaN, NaN, NaN, 0.0286883, "- N/A -   "
6.12, 143.07, 0.0103767, NaN, NaN, NaN, 0.0286883, "- N/A -   "
6.13, 143.188, 0.0103934, NaN, NaN, NaN, 0.0286883, "- N/A -   "
6.14, 143.542, 0.01041, NaN, NaN, NaN, 0.0274675, "- N/A -   "
6.15, 143.896, 0.0104239, NaN, NaN, NaN, 0.0286883, "- N/A -   "
6.16, 144.014, 0.0104406, NaN, NaN, NaN, 0.0286883, "- N/A -   "
6.17, 144.25, 0.01045447, NaN, NaN, NaN, 0.0299091, "- N/A -   "
6.18, 144.486, 0.0104711, NaN, NaN, NaN, 0.0299091, "- N/A -   "
6.19, 144.8395, 0.0104878, NaN, NaN, NaN, 0.03112983, "- N/A -   "
6.2, 145.0754, 0.0105045, NaN, NaN, NaN, 0.03112983, "- N/A -   "
6.21, 145.311, 0.0105183, NaN, NaN, NaN, 0.03112983, "- N/A -   "
6.22, 145.547, 0.010535, NaN, NaN, NaN, 0.03112983, "- N/A -   "
6.23, 145.783, 0.0105489, NaN, NaN, NaN, 0.0323506, "- N/A -   "
6.24, 146.019, 0.0105655, NaN, NaN, NaN, 0.0323506, "- N/A -   "
6.25, 146.255, 0.0105794, NaN, NaN, NaN, 0.0335714, "- N/A -   "
6.26, 146.491, 0.0105933, NaN, NaN, NaN, 0.0347922, "- N/A -   "
6.27, 146.6087, 0.0106072, NaN, NaN, NaN, 0.03601294, "- N/A -   "
6.28, 146.727, 0.0106183, NaN, NaN, NaN, 0.0384545, "- N/A -   "
6.29, 146.963, 0.0106322, NaN, NaN, NaN, 0.0396753, "- N/A -   "
6.3, 147.316, 0.0106461, NaN, NaN, NaN, 0.04089605, "- N/A -   "
6.31, 147.434, 0.01065995, NaN, NaN, NaN, 0.04211683, "- N/A -   "
6.32, 147.67, 0.0106738, NaN, NaN, NaN, 0.0433376, "- N/A -   "
6.33, 147.906, 0.0106905, NaN, NaN, NaN, 0.0433376, "- N/A -   "
6.34, 148.142, 0.0107044, NaN, NaN, NaN, 0.0445584, "- N/A -   "
6.35, 148.378, 0.010721, NaN, NaN, NaN, 0.0445584, "- N/A -   "
6.36, 148.6138, 0.0107349, NaN, NaN, NaN, 0.04577916, "- N/A -   "
6.37, 149.0856, 0.0107544, NaN, NaN, NaN, 0.04577916, "- N/A -   "
6.38, 149.3215, 0.0107682, NaN, NaN, NaN, 0.04577916, "- N/A -   "
6.39, 149.557, 0.0107877, NaN, NaN, NaN, 0.04577916, "- N/A -   "
6.4, 149.793, 0.0108043, NaN, NaN, NaN, 0.0445584, "- N/A -   "
6.41, 150.147, 0.010821, NaN, NaN, NaN, 0.0445584, "- N/A -   "
6.42, 150.383, 0.0108377, NaN, NaN, NaN, 0.0445584, "- N/A -   "
6.43, 150.619, 0.0108543, NaN, NaN, NaN, 0.0445584, "- N/A -   "
6.44, 150.973, 0.010871, NaN, NaN, NaN, 0.0445584, "- N/A -   "
6.45, 151.209, 0.0108904, NaN, NaN, NaN, 0.0433376, "- N/A -   "
6.46, 151.68, 0.0109099, NaN, NaN, NaN, 0.04211683, "- N/A -   "
6.47, 151.916, 0.0109293, NaN, NaN, NaN, 0.04089605, "- N/A -   "
6.48, 152.27, 0.0109487, NaN, NaN, NaN, 0.0396753, "- N/A -   "
6.49, 152.624, 0.0109682, NaN, NaN, NaN, 0.0396753, "- N/A -   "
6.5, 152.978, 0.01098483, NaN, NaN, NaN, 0.0384545, "- N/A -   "
6.51, 153.332, 0.0110043, NaN, NaN, NaN, 0.0384545, "- N/A -   "
6.52, 153.45, 0.0110209, NaN, NaN, NaN, 0.0384545, "- N/A -   "
6.53, 153.8035, 0.0110376, NaN, NaN, NaN, 0.0372337, "- N/A -   "
6.54, 154.0394, 0.0110542, NaN, NaN, NaN, 0.0372337, "- N/A -   "
6.55, 154.393, 0.0110737, NaN, NaN, NaN, 0.0372337, "- N/A -   "
6.56, 154.629, 0.0110903, NaN, NaN, NaN, 0.03601294, "- N/A -   "
6.57, 155.101, 0.0111098, NaN, NaN, NaN, 0.0347922, "- N/A -   "
6.58, 155.337, 0.0111264, NaN, NaN, NaN, 0.0347922, "- N/A -   "
6.59, 155.573, 0.0111459, NaN, NaN, NaN, 0.0347922, "- N/A -   "
6.6, 155.809, 0.0111625, NaN, NaN, NaN, 0.0335714, "- N/A -   "
6.61, 156.162, 0.0111792, NaN, NaN, NaN, 0.0335714, "- N/A -   "
6.62, 156.398, 0.0111959, NaN, NaN, NaN, 0.0347922, "- N/A -   "
6.63, 156.752, 0.0112125, NaN, NaN, NaN, 0.0335714, "- N/A -   "
6.64, 156.87, 0.0112292, NaN, NaN, NaN, 0.0335714, "- N/A -   "
6.65, 157.224, 0.0112458, NaN, NaN, NaN, 0.0335714, "- N/A -   "
6.66, 157.578, 0.0112653, NaN, NaN, NaN, 0.0323506, "- N/A -   "
6.67, 157.814, 0.0112819, NaN, NaN, NaN, 0.0323506, "- N/A -   "
6.68, 158.2855, 0.01130138, NaN, NaN, NaN, 0.03112983, "- N/A -   "
6.69, 158.521, 0.01131804, NaN, NaN, NaN, 0.03112983, "- N/A -   "
6.7, 158.875, 0.0113375, NaN, NaN, NaN, 0.0299091, "- N/A -   "
6.71, 159.111, 0.0113541, NaN, NaN, NaN, 0.0299091, "- N/A -   "
6.72, 159.347, 0.0113708, NaN, NaN, NaN, 0.0299091, "- N/A -   "
6.73, 159.701, 0.0113902, NaN, NaN, NaN, 0.0286883, "- N/A -   "
6.74, 160.055, 0.0114069, NaN, NaN, NaN, 0.0286883, "- N/A -   "
6.75, 160.409, 0.0114263, NaN, NaN, NaN, 0.0274675, "- N/A -   "
6.76, 160.644, 0.011443, NaN, NaN, NaN, 0.0274675, "- N/A -   "
6.77, 160.88, 0.0114624, NaN, NaN, NaN, 0.0274675, "- N/A -   "
6.78, 161.116, 0.0114791, NaN, NaN, NaN, 0.0262467, "- N/A -   "
[...]
9.53, 244.032, 0.016058, NaN, NaN, NaN, 0.0299091, "- N/A -   "
9.67, 248.273, 0.0162801, NaN, NaN, NaN, 0.0335714, "- N/A -   "
9.81, 251.926, 0.0164828, NaN, NaN, NaN, 0.04699994, "- N/A -   "
9.95, 257.11, 0.016741, NaN, NaN, NaN, 0.03601294, "- N/A -   "
10.09, 261.8235, 0.0169826, NaN, NaN, NaN, 0.0323506, "- N/A -   "
10.23, 266.537, 0.01722419, NaN, NaN, NaN, 0.0286883, "- N/A -   "
10.37, 270.189, 0.0174241, NaN, NaN, NaN, 0.0433376, "- N/A -   "
10.51, 274.784, 0.0176546, NaN, NaN, NaN, 0.0445584, "- N/A -   "
10.65, 279.9687, 0.0179128, NaN, NaN, NaN, 0.0347922, "- N/A -   "
10.79, 284.682, 0.0181544, NaN, NaN, NaN, 0.0299091, "- N/A -   "
10.93, 289.159, 0.0183765, NaN, NaN, NaN, 0.0347922, "- N/A -   "
11.07, 293.519, 0.01860146, NaN, NaN, NaN, 0.0396753, "- N/A -   "
11.21, 298.114, 0.0188208, NaN, NaN, NaN, 0.0445584, "- N/A -   "
11.35, 303.652, 0.0190902, NaN, NaN, NaN, 0.0286883, "- N/A -   "
11.49, 307.893, 0.019304, NaN, NaN, NaN, 0.0372337, "- N/A -   "
11.63, 312.96, 0.0195456, NaN, NaN, NaN, 0.0335714, "- N/A -   "
11.77, 317.202, 0.0197594, NaN, NaN, NaN, 0.0433376, "- N/A -   "
11.91, 322.15, 0.0200009, NaN, NaN, NaN, 0.0384545, "- N/A -   "
12.05, 327.217, 0.0202425, NaN, NaN, NaN, 0.0347922, "- N/A -   "
12.19, 332.4013, 0.0204869, NaN, NaN, NaN, 0.0299091, "- N/A -   "
12.33, 337.114, 0.0207173, NaN, NaN, NaN, 0.03112983, "- N/A -   "
12.47, 341.71, 0.0209395, NaN, NaN, NaN, 0.03601294, "- N/A -   "
12.61, 345.716, 0.0211366, NaN, NaN, NaN, 0.0531038, "- N/A -   "
12.75, 351.843, 0.02140598, NaN, NaN, NaN, 0.0372337, "- N/A -   "
12.89, 357.145, 0.02165311, NaN, NaN, NaN, 0.03112983, "- N/A -   "
13.03, 362.093, 0.0218891, NaN, NaN, NaN, 0.0299091, "- N/A -   "
13.17, 366.1, 0.0220863, NaN, NaN, NaN, 0.04577916, "- N/A -   "
13.31, 371.52, 0.0223251, NaN, NaN, NaN, 0.0433376, "- N/A -   "
13.45, 377.057, 0.0225805, NaN, NaN, NaN, 0.0335714, "- N/A -   "
13.59, 382.4774, 0.0228305, NaN, NaN, NaN, 0.0274675, "- N/A -   "
13.73, 387.0726, 0.0230415, NaN, NaN, NaN, 0.03601294, "- N/A -   "
13.87, 391.903, 0.0232608, NaN, NaN, NaN, 0.0433376, "- N/A -   "
14.01, 397.206, 0.02349132, NaN, NaN, NaN, 0.0433376, "- N/A -   "
14.15, 403.097, 0.0237579, NaN, NaN, NaN, 0.0299091, "- N/A -   "
14.29, 408.163, 0.02398, NaN, NaN, NaN, 0.0335714, "- N/A -   "
14.43, 413.23, 0.0242049, NaN, NaN, NaN, 0.0372337, "- N/A -   "
14.57, 418.061, 0.0244188, NaN, NaN, NaN, 0.04577916, "- N/A -   "
14.71, 424.188, 0.02467977, NaN, NaN, NaN, 0.0335714, "- N/A -   "
14.85, 429.608, 0.0249186, NaN, NaN, NaN, 0.03112983, "- N/A -   "
14.99, 434.91, 0.0251518, NaN, NaN, NaN, 0.03112983, "- N/A -   "
15.13, 439.741, 0.0253656, NaN, NaN, NaN, 0.0396753, "- N/A -   "
15.27, 445.043, 0.0255989, NaN, NaN, NaN, 0.0396753, "- N/A -   "
15.41, 450.6987, 0.0258405, NaN, NaN, NaN, 0.0372337, "- N/A -   "
15.55, 456.237, 0.0260793, NaN, NaN, NaN, 0.0335714, "- N/A -   "
15.69, 461.657, 0.0263097, NaN, NaN, NaN, 0.03601294, "- N/A -   "
15.83, 467.0765, 0.02654297, NaN, NaN, NaN, 0.0347922, "- N/A -   "
15.97, 471.9074, 0.02675678, NaN, NaN, NaN, 0.0445584, "- N/A -   "
16.11, 477.7987, 0.0270011, NaN, NaN, NaN, 0.0384545, "- N/A -   "
16.25, 483.572, 0.027251, NaN, NaN, NaN, 0.03112983, "- N/A -   "
16.39, 489.11, 0.0274898, NaN, NaN, NaN, 0.0286883, "- N/A -   "
16.53, 493.941, 0.0276981, NaN, NaN, NaN, 0.0396753, "- N/A -   "
16.67, 499.243, 0.027923, NaN, NaN, NaN, 0.0433376, "- N/A -   "
16.81, 505.252, 0.0281729, NaN, NaN, NaN, 0.0372337, "- N/A -   "
16.95, 511.143, 0.0284201, NaN, NaN, NaN, 0.0299091, "- N/A -   "
17.09, 516.5753, 0.0286505, NaN, NaN, NaN, 0.03112983, "- N/A -   "
17.23, 521.3065, 0.028856, NaN, NaN, NaN, 0.0445584, "- N/A -   "
17.37, 526.8657, 0.0290893, NaN, NaN, NaN, 0.0445584, "- N/A -   "
17.51, 533.6077, 0.02935582, NaN, NaN, NaN, 0.03112983, "- N/A -   "
17.65, 539.0487, 0.0295891, NaN, NaN, NaN, 0.0299091, "- N/A -   "
17.79, 544.253, 0.02980843, NaN, NaN, NaN, 0.0372337, "- N/A -   "
17.93, 549.694, 0.0300278, NaN, NaN, NaN, 0.04211683, "- N/A -   "
18.07, 555.3714, 0.0302638, NaN, NaN, NaN, 0.04089605, "- N/A -   "
18.21, 561.6403, 0.0305165, NaN, NaN, NaN, 0.0323506, "- N/A -   "
18.35, 566.9629, 0.0307386, NaN, NaN, NaN, 0.0372337, "- N/A -   "
18.49, 572.877, 0.0309802, NaN, NaN, NaN, 0.0335714, "- N/A -   "
18.63, 578.081, 0.0311968, NaN, NaN, NaN, 0.04089605, "- N/A -   "
18.77, 584.114, 0.0314412, NaN, NaN, NaN, 0.0372337, "- N/A -   "
18.91, 589.9094, 0.0316744, NaN, NaN, NaN, 0.03601294, "- N/A -   "
19.05, 595.8235, 0.031916, NaN, NaN, NaN, 0.0323506, "- N/A -   "
19.19, 601.501, 0.0321465, NaN, NaN, NaN, 0.0335714, "- N/A -   "
19.33, 606.8236, 0.0323686, NaN, NaN, NaN, 0.0396753, "- N/A -   "
19.47, 612.6193, 0.0325991, NaN, NaN, NaN, 0.0396753, "- N/A -   "
19.61, 618.8882, 0.0328462, NaN, NaN, NaN, 0.0335714, "- N/A -   "
19.75, 624.684, 0.03308222, NaN, NaN, NaN, 0.0335714, "- N/A -   "
19.89, 630.3615, 0.0333099, NaN, NaN, NaN, 0.03601294, "- N/A -   "
20.03, 635.4476, 0.0335182, NaN, NaN, NaN, 0.04699994, "- N/A -   "
20.17, 641.953, 0.0337709, NaN, NaN, NaN, 0.0372337, "- N/A -   "
20.31, 648.104, 0.0340208, NaN, NaN, NaN, 0.0299091, "- N/A -   "
20.45, 654.1359, 0.0342568, NaN, NaN, NaN, 0.0286883, "- N/A -   "
20.59, 659.104, 0.03446227, NaN, NaN, NaN, 0.04089605, "- N/A -   "
20.73, 664.8995, 0.03468996, NaN, NaN, NaN, 0.0433376, "- N/A -   "
20.87, 671.168, 0.03493709, NaN, NaN, NaN, 0.0372337, "- N/A -   "
21.01, 677.6738, 0.0351898, NaN, NaN, NaN, 0.0286883, "- N/A -   "
21.15, 682.996, 0.0354036, NaN, NaN, NaN, 0.0372337, "- N/A -   "
21.29, 688.91, 0.0356341, NaN, NaN, NaN, 0.0384545, "- N/A -   "
21.43, 694.3514, 0.03585342, NaN, NaN, NaN, 0.0445584, "- N/A -   "
21.57, 701.2117, 0.03612, NaN, NaN, NaN, 0.0299091, "- N/A -   "
21.71, 706.889, 0.0363449, NaN, NaN, NaN, 0.0347922, "- N/A -   "
21.85, 713.276, 0.0365893, NaN, NaN, NaN, 0.03112983, "- N/A -   "
21.99, 718.2441, 0.0367892, NaN, NaN, NaN, 0.0445584, "- N/A -   "
22.13, 724.513, 0.0370363, NaN, NaN, NaN, 0.0396753, "- N/A -   "
22.27, 730.664, 0.0372723, NaN, NaN, NaN, 0.0372337, "- N/A -   "
22.41, 736.8143, 0.0375139, NaN, NaN, NaN, 0.0335714, "- N/A -   "
22.55, 742.4917, 0.0377416, NaN, NaN, NaN, 0.03601294, "- N/A -   "
22.69, 748.2875, 0.03797208, NaN, NaN, NaN, 0.0372337, "- N/A -   "
22.83, 753.7284, 0.0381831, NaN, NaN, NaN, 0.04699994, "- N/A -   "
22.97, 760.825, 0.0384525, NaN, NaN, NaN, 0.03112983, "- N/A -   "
23.11, 766.621, 0.0386829, NaN, NaN, NaN, 0.0323506, "- N/A -   "
23.25, 772.7716, 0.0389245, NaN, NaN, NaN, 0.0286883, "- N/A -   "
23.39, 777.6211, 0.0391217, NaN, NaN, NaN, 0.04577916, "- N/A -   "
23.53, 783.7717, 0.0393577, NaN, NaN, NaN, 0.0433376, "- N/A -   "
23.67, 790.277, 0.0396131, NaN, NaN, NaN, 0.0335714, "- N/A -   "
23.81, 796.5461, 0.0398547, NaN, NaN, NaN, 0.0299091, "- N/A -   "
23.95, 802.1053, 0.04007686, NaN, NaN, NaN, 0.0347922, "- N/A -   "
24.09, 807.5462, 0.04029067, NaN, NaN, NaN, 0.0433376, "- N/A -   "
24.23, 813.5785, 0.0405267, NaN, NaN, NaN, 0.04211683, "- N/A -   "
24.37, 820.557, 0.0407933, NaN, NaN, NaN, 0.0274675, "- N/A -   "
24.51, 826.235, 0.0410182, NaN, NaN, NaN, 0.03112983, "- N/A -   "
24.65, 832.149, 0.0412431, NaN, NaN, NaN, 0.0347922, "- N/A -   "
24.79, 837.4712, 0.0414541, NaN, NaN, NaN, 0.0445584, "- N/A -   "
24.93, 844.213, 0.04170681, NaN, NaN, NaN, 0.03601294, "- N/A -   "
25.07, 850.364, 0.0419456, NaN, NaN, NaN, 0.0335714, "- N/A -   "
25.21, 856.16, 0.04217886, NaN, NaN, NaN, 0.0347922, "- N/A -   "
25.35, 862.192, 0.0424038, NaN, NaN, NaN, 0.0372337, "- N/A -   "
25.49, 868.106, 0.04263425, NaN, NaN, NaN, 0.0396753, "- N/A -   "
25.63, 874.3748, 0.04287305, NaN, NaN, NaN, 0.03601294, "- N/A -   "
25.77, 880.525, 0.0431146, NaN, NaN, NaN, 0.0335714, "- N/A -   "
25.91, 886.9126, 0.0433562, NaN, NaN, NaN, 0.0286883, "- N/A -   "
26.05, 892.5901, 0.0435783, NaN, NaN, NaN, 0.0347922, "- N/A -   "
26.19, 897.794, 0.04378105, NaN, NaN, NaN, 0.0482207, "- N/A -   "
26.33, 904.6547, 0.0440365, NaN, NaN, NaN, 0.0384545, "- N/A -   "
26.47, 910.9236, 0.04428086, NaN, NaN, NaN, 0.0335714, "- N/A -   "
26.61, 917.547, 0.04452799, NaN, NaN, NaN, 0.0286883, "- N/A -   "
26.75, 922.7517, 0.04473625, NaN, NaN, NaN, 0.0384545, "- N/A -   "
26.89, 928.4292, 0.0449528, NaN, NaN, NaN, 0.04577916, "- N/A -   "
27.03, 935.2895, 0.0452111, NaN, NaN, NaN, 0.0347922, "- N/A -   "
27.17, 941.677, 0.0454554, NaN, NaN, NaN, 0.0299091, "- N/A -   "
27.31, 947.709, 0.0456887, NaN, NaN, NaN, 0.03112983, "- N/A -   "
27.45, 952.913, 0.0458886, NaN, NaN, NaN, 0.0445584, "- N/A -   "
27.451, 952.913, 0.0458914, NaN, NaN, NaN, 0.0445584, "- N/A -   "