File: 2_Tensile_Data/Hamel_ForceTest_Bolt4_Test8.csv
Time, Load (lb), Position (in), AxialStrain (in), TransverseStrain (in), Auxiliary (), Control Out (V), Stress (psi)
0.0, 7.666586, 0.0, NaN, NaN, NaN, -0.007935055, "- N/A -   "
0.01, 7.666586, 0.0, NaN, NaN, NaN, -6.103888E-4, "- N/A -   "
0.02, 7.666586, 0.0, NaN, NaN, NaN, 0.006714277, "- N/A -   "
0.03, 7.666586, 0.0, NaN, NaN, NaN, 0.0140389, "- N/A -   "
0.04, 7.666586, 2.776752E-6, NaN, NaN, NaN, 0.0213636, "- N/A -   "
0.05, 7.90248, 5.553504E-6, NaN, NaN, NaN, 0.0396753, "- N/A -   "
0.06, 7.90248, 1.66605e-05, NaN, NaN, NaN, 0.0543246, "- N/A -   "
0.07, 8.138375, 3.60978e-05, NaN, NaN, NaN, 0.0653116, "- N/A -   "
0.08, 8.492218, 5.5535e-05, NaN, NaN, NaN, 0.0762986, "- N/A -   "
0.09, 8.728113, 8.33026e-05, NaN, NaN, NaN, 0.084844, "- N/A -   "
0.1, 9.081955, 0.00011107, NaN, NaN, NaN, 0.08362327, "- N/A -   "
0.11, 9.553744, 0.000141614, NaN, NaN, NaN, 0.07874016, "- N/A -   "
0.12, 9.78964, 0.000166605, NaN, NaN, NaN, 0.0750778, "- N/A -   "
0.13, 10.1435, 0.000191596, NaN, NaN, NaN, 0.0701947, "- N/A -   "
0.14, 10.26143, 2.138099E-4, NaN, NaN, NaN, 0.06775316, "- N/A -   "
0.15, 10.4973, 0.000233247, NaN, NaN, NaN, 0.06653238, "- N/A -   "
0.16, 10.73322, 2.526844E-4, NaN, NaN, NaN, 0.0653116, "- N/A -   "
0.17, 10.8512, 0.000269345, NaN, NaN, NaN, 0.0653116, "- N/A -   "
0.18, 11.205, 0.000288782, NaN, NaN, NaN, 0.0640908, "- N/A -   "
0.19, 11.4409, 0.000308219, NaN, NaN, NaN, 0.06287005, "- N/A -   "
0.2, 11.5589, 0.000327657, NaN, NaN, NaN, 0.06164927, "- N/A -   "
0.21, 11.7947, 0.000344317, NaN, NaN, NaN, 0.06164927, "- N/A -   "
0.22, 11.9127, 0.000360978, NaN, NaN, NaN, 0.06164927, "- N/A -   "
0.23, 12.14859, 3.80415E-4, NaN, NaN, NaN, 0.0604285, "- N/A -   "
0.24, 12.2665, 0.000399852, NaN, NaN, NaN, 0.0592077, "- N/A -   "
0.25, 12.5024, 0.000416513, NaN, NaN, NaN, 0.0592077, "- N/A -   "
0.26, 12.6204, 0.00043595, NaN, NaN, NaN, 0.0579869, "- N/A -   "
0.27, 12.9742, 4.553873E-4, NaN, NaN, NaN, 0.05676616, "- N/A -   "
0.28, 13.09217, 0.000474825, NaN, NaN, NaN, 0.0555454, "- N/A -   "
0.29, 13.3281, 4.942618E-4, NaN, NaN, NaN, 0.0543246, "- N/A -   "
0.3, 13.446, 5.136991E-4, NaN, NaN, NaN, 0.0531038, "- N/A -   "
0.31, 13.7999, 0.000533136, NaN, NaN, NaN, 0.05188305, "- N/A -   "
0.32, 13.9178, 5.553504E-4, NaN, NaN, NaN, 0.0494415, "- N/A -   "
0.33, 14.1537, 5.747876E-4, NaN, NaN, NaN, 0.0482207, "- N/A -   "
0.34, 14.3896, 5.942249E-4, NaN, NaN, NaN, 0.04699994, "- N/A -   "
0.35, 14.5075, 6.136621E-4, NaN, NaN, NaN, 0.04577916, "- N/A -   "
0.36, 14.7434, 6.330994E-4, NaN, NaN, NaN, 0.0445584, "- N/A -   "
0.37, 14.9793, 6.525367E-4, NaN, NaN, NaN, 0.0433376, "- N/A -   "
0.38, 15.0973, 6.747507E-4, NaN, NaN, NaN, 0.04089605, "- N/A -   "
0.39, 15.3332, 0.000694188, NaN, NaN, NaN, 0.0396753, "- N/A -   "
0.4, 15.5691, 7.136252E-4, NaN, NaN, NaN, 0.0384545, "- N/A -   "
0.41, 15.805, 0.000733062, NaN, NaN, NaN, 0.0372337, "- N/A -   "
0.42, 15.9229, 7.49723E-4, NaN, NaN, NaN, 0.0372337, "- N/A -   "
0.43, 16.0409, 7.663835E-4, NaN, NaN, NaN, 0.0372337, "- N/A -   "
0.48, 16.9844, 8.524628E-4, NaN, NaN, NaN, 0.03601294, "- N/A -   "
0.53, 18.046, 0.000949649, NaN, NaN, NaN, 0.0299091, "- N/A -   "
0.58, 18.8716, 0.00103573, NaN, NaN, NaN, 0.0299091, "- N/A -   "
0.63, 19.6972, 0.0011107, NaN, NaN, NaN, 0.0323506, "- N/A -   "
0.68, 20.4049, 0.00118845, NaN, NaN, NaN, 0.03601294, "- N/A -   "
0.73, 21.2305, 0.00126342, NaN, NaN, NaN, 0.0384545, "- N/A -   "
0.78, 21.93823, 0.00133839, NaN, NaN, NaN, 0.04211683, "- N/A -   "
0.83, 22.88181, 0.00141614, NaN, NaN, NaN, 0.0445584, "- N/A -   "
0.88, 23.82539, 0.001499446, NaN, NaN, NaN, 0.0445584, "- N/A -   "
0.93, 24.65102, 0.00157997, NaN, NaN, NaN, 0.04577916, "- N/A -   "
0.98, 25.8305, 0.0016716, NaN, NaN, NaN, 0.04211683, "- N/A -   "
1.03, 26.892, 0.00176601, NaN, NaN, NaN, 0.0372337, "- N/A -   "
1.08, 28.0715, 0.00186042, NaN, NaN, NaN, 0.0323506, "- N/A -   "
1.13, 29.251, 0.00195483, NaN, NaN, NaN, 0.0274675, "- N/A -   "
1.18, 30.3125, 0.002038136, NaN, NaN, NaN, 0.0274675, "- N/A -   "
1.23, 31.2561, 0.00211588, NaN, NaN, NaN, 0.0299091, "- N/A -   "
1.28, 32.3176, 0.002193634, NaN, NaN, NaN, 0.0323506, "- N/A -   "
1.33, 33.2612, 0.002271383, NaN, NaN, NaN, 0.0347922, "- N/A -   "
1.38, 34.3227, 0.00235469, NaN, NaN, NaN, 0.0347922, "- N/A -   "
1.43, 35.3842, 0.00243521, NaN, NaN, NaN, 0.03601294, "- N/A -   "
1.48, 36.32782, 0.00251018, NaN, NaN, NaN, 0.0396753, "- N/A -   "
1.53, 37.2714, 0.00258516, NaN, NaN, NaN, 0.0433376, "- N/A -   "
1.58, 38.3329, 0.00266568, NaN, NaN, NaN, 0.0445584, "- N/A -   "
1.63, 39.2765, 0.00274898, NaN, NaN, NaN, 0.04577916, "- N/A -   "
1.68, 40.69188, 0.00284062, NaN, NaN, NaN, 0.04089605, "- N/A -   "
1.73, 41.8714, 0.00293503, NaN, NaN, NaN, 0.0372337, "- N/A -   "
1.78, 43.0508, 0.00302666, NaN, NaN, NaN, 0.0323506, "- N/A -   "
1.83, 43.9944, 0.00310719, NaN, NaN, NaN, 0.0335714, "- N/A -   "
1.88, 45.05593, 0.00318493, NaN, NaN, NaN, 0.03601294, "- N/A -   "
1.93, 45.9995, 0.00327101, NaN, NaN, NaN, 0.0347922, "- N/A -   "
1.98, 47.179, 0.00335987, NaN, NaN, NaN, 0.0323506, "- N/A -   "
2.03, 48.12257, 0.0034404, NaN, NaN, NaN, 0.0335714, "- N/A -   "
2.08, 49.0661, 0.00351814, NaN, NaN, NaN, 0.03601294, "- N/A -   "
2.13, 50.0097, 0.00359589, NaN, NaN, NaN, 0.0384545, "- N/A -   "
2.18, 50.9533, 0.00367364, NaN, NaN, NaN, 0.04089605, "- N/A -   "
2.23, 51.89689, 0.00375695, NaN, NaN, NaN, 0.04089605, "- N/A -   "
2.28, 52.9584, 0.00384302, NaN, NaN, NaN, 0.0396753, "- N/A -   "
2.33, 54.0199, 0.00393188, NaN, NaN, NaN, 0.0372337, "- N/A -   "
2.38, 55.0815, 0.00401796, NaN, NaN, NaN, 0.03601294, "- N/A -   "
2.43, 56.143, 0.004104039, NaN, NaN, NaN, 0.0347922, "- N/A -   "
2.48, 56.9686, 0.00418179, NaN, NaN, NaN, 0.0372337, "- N/A -   "
2.53, 58.1481, 0.004265091, NaN, NaN, NaN, 0.0372337, "- N/A -   "
2.58, 59.3276, 0.00435672, NaN, NaN, NaN, 0.0335714, "- N/A -   "
2.63, 60.3891, 0.004442803, NaN, NaN, NaN, 0.0323506, "- N/A -   "
2.68, 61.56858, 0.00452611, NaN, NaN, NaN, 0.0323506, "- N/A -   "
2.73, 62.6301, 0.004609408, NaN, NaN, NaN, 0.0323506, "- N/A -   "
2.78, 63.80958, 0.00469549, NaN, NaN, NaN, 0.03112983, "- N/A -   "
2.83, 64.87111, 0.00477324, NaN, NaN, NaN, 0.0335714, "- N/A -   "
2.88, 65.81469, 0.004845432, NaN, NaN, NaN, 0.0384545, "- N/A -   "
2.93, 66.87622, 0.0049204, NaN, NaN, NaN, 0.04211683, "- N/A -   "
2.98, 68.05569, 0.00500093, NaN, NaN, NaN, 0.0433376, "- N/A -   "
3.03, 69.23517, 0.00508423, NaN, NaN, NaN, 0.0433376, "- N/A -   "
3.08, 70.5326, 0.00517031, NaN, NaN, NaN, 0.04211683, "- N/A -   "
3.13, 72.06591, 0.00526472, NaN, NaN, NaN, 0.0372337, "- N/A -   "
3.18, 73.36333, 0.00535913, NaN, NaN, NaN, 0.0323506, "- N/A -   "
3.23, 74.66075, 0.00544243, NaN, NaN, NaN, 0.0323506, "- N/A -   "
3.28, 75.8402, 0.00552296, NaN, NaN, NaN, 0.0335714, "- N/A -   "
3.33, 77.37354, 0.00560904, NaN, NaN, NaN, 0.0323506, "- N/A -   "
3.38, 78.67096, 0.005697895, NaN, NaN, NaN, 0.0299091, "- N/A -   "
3.43, 79.85043, 0.00577842, NaN, NaN, NaN, 0.03112983, "- N/A -   "
3.48, 81.14786, 0.00585617, NaN, NaN, NaN, 0.0335714, "- N/A -   "
3.53, 82.32734, 0.005931142, NaN, NaN, NaN, 0.0372337, "- N/A -   "
3.58, 83.27091, 0.006003338, NaN, NaN, NaN, 0.04211683, "- N/A -   "
3.63, 84.56834, 0.00607831, NaN, NaN, NaN, 0.04699994, "- N/A -   "
3.68, 85.9837, 0.006164389, NaN, NaN, NaN, 0.04577916, "- N/A -   "
3.73, 87.63497, 0.006261575, NaN, NaN, NaN, 0.04089605, "- N/A -   "
3.78, 89.16828, 0.006350431, NaN, NaN, NaN, 0.0372337, "- N/A -   "
3.83, 90.70161, 0.006439287, NaN, NaN, NaN, 0.0347922, "- N/A -   "
3.88, 92.23492, 0.00652814, NaN, NaN, NaN, 0.0323506, "- N/A -   "
3.93, 93.76824, 0.006619776, NaN, NaN, NaN, 0.0286883, "- N/A -   "
3.98, 95.18361, 0.006703079, NaN, NaN, NaN, 0.0286883, "- N/A -   "
4.03, 96.599, 0.00678638, NaN, NaN, NaN, 0.0286883, "- N/A -   "
4.079, 97.8964, 0.00686413, NaN, NaN, NaN, 0.03112983, "- N/A -   "
4.13, 99.0759, 0.006936326, NaN, NaN, NaN, 0.03601294, "- N/A -   "
4.18, 100.491, 0.00701408, NaN, NaN, NaN, 0.0384545, "- N/A -   "
4.23, 101.671, 0.00708627, NaN, NaN, NaN, 0.0433376, "- N/A -   "
4.28, 103.086, 0.00716402, NaN, NaN, NaN, 0.04577916, "- N/A -   "
4.33, 104.501, 0.00724732, NaN, NaN, NaN, 0.04699994, "- N/A -   "
4.38, 106.035, 0.007330625, NaN, NaN, NaN, 0.04577916, "- N/A -   "
4.43, 107.686, 0.0074167, NaN, NaN, NaN, 0.0445584, "- N/A -   "
4.48, 109.219, 0.007511114, NaN, NaN, NaN, 0.0396753, "- N/A -   "
4.53, 111.107, 0.007611077, NaN, NaN, NaN, 0.0323506, "- N/A -   "
4.58, 112.64, 0.007697156, NaN, NaN, NaN, 0.03112983, "- N/A -   "
4.63, 114.173, 0.007783236, NaN, NaN, NaN, 0.0299091, "- N/A -   "
4.68, 115.471, 0.007858207, NaN, NaN, NaN, 0.0335714, "- N/A -   "
4.73, 117.004, 0.007938734, NaN, NaN, NaN, 0.0347922, "- N/A -   "
4.78, 118.301, 0.008016483, NaN, NaN, NaN, 0.0372337, "- N/A -   "
4.83, 119.717, 0.008094232, NaN, NaN, NaN, 0.0396753, "- N/A -   "
4.88, 121.368, 0.008180311, NaN, NaN, NaN, 0.0384545, "- N/A -   "
4.93, 122.665, 0.008255283, NaN, NaN, NaN, 0.04211683, "- N/A -   "
4.98, 124.081, 0.008335809, NaN, NaN, NaN, 0.0445584, "- N/A -   "
5.03, 125.614, 0.008413558, NaN, NaN, NaN, 0.04577916, "- N/A -   "
5.08, 127.501, 0.008513521, NaN, NaN, NaN, 0.0384545, "- N/A -   "
5.13, 129.388, 0.00860793, NaN, NaN, NaN, 0.0335714, "- N/A -   "
5.18, 131.04, 0.008702341, NaN, NaN, NaN, 0.0299091, "- N/A -   "
5.23, 132.6909, 0.008785643, NaN, NaN, NaN, 0.0286883, "- N/A -   "
5.28, 133.87, 0.008857839, NaN, NaN, NaN, 0.0335714, "- N/A -   "
5.33, 135.1678, 0.00893559, NaN, NaN, NaN, 0.03601294, "- N/A -   "
5.38, 137.055, 0.009021667, NaN, NaN, NaN, 0.0347922, "- N/A -   "
5.43, 138.706, 0.009110522, NaN, NaN, NaN, 0.0323506, "- N/A -   "
5.48, 140.1216, 0.009188272, NaN, NaN, NaN, 0.0347922, "- N/A -   "
5.53, 141.6549, 0.009266021, NaN, NaN, NaN, 0.0372337, "- N/A -   "
5.58, 142.952, 0.00934377, NaN, NaN, NaN, 0.0396753, "- N/A -   "
5.63, 144.486, 0.009421519, NaN, NaN, NaN, 0.04211683, "- N/A -   "
5.68, 146.137, 0.009504822, NaN, NaN, NaN, 0.04211683, "- N/A -   "
5.73, 147.67, 0.009588124, NaN, NaN, NaN, 0.04211683, "- N/A -   "
5.78, 149.557, 0.009679756, NaN, NaN, NaN, 0.0384545, "- N/A -   "
5.83, 151.209, 0.009765836, NaN, NaN, NaN, 0.0372337, "- N/A -   "
5.88, 152.742, 0.009846362, NaN, NaN, NaN, 0.0384545, "- N/A -   "
5.93, 154.511, 0.009932442, NaN, NaN, NaN, 0.0372337, "- N/A -   "
5.98, 156.398, 0.0100241, NaN, NaN, NaN, 0.0335714, "- N/A -   "
6.03, 158.0496, 0.0101102, NaN, NaN, NaN, 0.0323506, "- N/A -   "
6.08, 159.819, 0.0101935, NaN, NaN, NaN, 0.0323506, "- N/A -   "
6.13, 161.352, 0.0102712, NaN, NaN, NaN, 0.0347922, "- N/A -   "
6.18, 163.121, 0.0103545, NaN, NaN, NaN, 0.0347922, "- N/A -   "
6.23, 164.773, 0.0104378, NaN, NaN, NaN, 0.03601294, "- N/A -   "
6.28, 166.306, 0.0105183, NaN, NaN, NaN, 0.03601294, "- N/A -   "
6.33, 168.075, 0.0105989, NaN, NaN, NaN, 0.0384545, "- N/A -   "
6.38, 169.491, 0.0106738, NaN, NaN, NaN, 0.04089605, "- N/A -   "
6.43, 171.26, 0.0107516, NaN, NaN, NaN, 0.0433376, "- N/A -   "
6.48, 173.029, 0.0108404, NaN, NaN, NaN, 0.04089605, "- N/A -   "
6.53, 175.27, 0.0109376, NaN, NaN, NaN, 0.0347922, "- N/A -   "
6.58, 177.039, 0.0110293, NaN, NaN, NaN, 0.03112983, "- N/A -   "
6.63, 178.808, 0.0111126, NaN, NaN, NaN, 0.03112983, "- N/A -   "
6.68, 180.46, 0.0111903, NaN, NaN, NaN, 0.0335714, "- N/A -   "
6.73, 182.229, 0.0112736, NaN, NaN, NaN, 0.0335714, "- N/A -   "
6.78, 184.234, 0.011368, NaN, NaN, NaN, 0.0286883, "- N/A -   "
6.83, 186.121, 0.0114513, NaN, NaN, NaN, 0.0286883, "- N/A -   "
6.88, 187.772, 0.0115291, NaN, NaN, NaN, 0.03112983, "- N/A -   "
6.93, 189.188, 0.0116013, NaN, NaN, NaN, 0.03601294, "- N/A -   "
6.98, 190.603, 0.0116707, NaN, NaN, NaN, 0.04211683, "- N/A -   "
7.03, 192.254, 0.0117484, NaN, NaN, NaN, 0.0445584, "- N/A -   "
7.08, 193.906, 0.0118262, NaN, NaN, NaN, 0.04699994, "- N/A -   "
7.13, 196.0287, 0.0119206, NaN, NaN, NaN, 0.04211683, "- N/A -   "
7.14, 196.5, 0.01194, NaN, NaN, NaN, 0.04089605, "- N/A -   "
7.15, 196.854, 0.0119567, NaN, NaN, NaN, 0.04089605, "- N/A -   "
7.16, 197.208, 0.0119734, NaN, NaN, NaN, 0.04089605, "- N/A -   "
7.17, 197.562, 0.0119928, NaN, NaN, NaN, 0.0396753, "- N/A -   "
7.18, 197.798, 0.0120095, NaN, NaN, NaN, 0.0396753, "- N/A -   "
7.19, 198.152, 0.01202889, NaN, NaN, NaN, 0.0384545, "- N/A -   "
7.2, 198.506, 0.0120455, NaN, NaN, NaN, 0.0396753, "- N/A -   "
7.21, 198.977, 0.01206221, NaN, NaN, NaN, 0.0384545, "- N/A -   "
7.22, 199.331, 0.01207887, NaN, NaN, NaN, 0.0384545, "- N/A -   "
7.23, 199.685, 0.0120955, NaN, NaN, NaN, 0.0384545, "- N/A -   "
7.24, 200.157, 0.0121122, NaN, NaN, NaN, 0.0384545, "- N/A -   "
7.25, 200.393, 0.0121316, NaN, NaN, NaN, 0.0372337, "- N/A -   "
7.26, 200.865, 0.01214829, NaN, NaN, NaN, 0.0372337, "- N/A -   "
7.27, 201.2184, 0.0121649, NaN, NaN, NaN, 0.0372337, "- N/A -   "
7.28, 201.572, 0.0121844, NaN, NaN, NaN, 0.03601294, "- N/A -   "
7.29, 202.044, 0.012201, NaN, NaN, NaN, 0.03601294, "- N/A -   "
7.3, 202.398, 0.0122205, NaN, NaN, NaN, 0.0347922, "- N/A -   "
7.31, 202.7517, 0.0122399, NaN, NaN, NaN, 0.0347922, "- N/A -   "
7.32, 203.2235, 0.0122566, NaN, NaN, NaN, 0.0335714, "- N/A -   "
7.33, 203.695, 0.01227602, NaN, NaN, NaN, 0.0323506, "- N/A -   "
7.34, 204.049, 0.0122955, NaN, NaN, NaN, 0.03112983, "- N/A -   "
7.35, 204.403, 0.0123149, NaN, NaN, NaN, 0.0299091, "- N/A -   "
7.36, 204.9927, 0.0123316, NaN, NaN, NaN, 0.0299091, "- N/A -   "
7.37, 205.347, 0.012351, NaN, NaN, NaN, 0.0286883, "- N/A -   "
7.38, 205.582, 0.0123677, NaN, NaN, NaN, 0.0286883, "- N/A -   "
7.39, 206.054, 0.0123843, NaN, NaN, NaN, 0.0286883, "- N/A -   "
7.4, 206.29, 0.012401, NaN, NaN, NaN, 0.0286883, "- N/A -   "
7.41, 206.762, 0.0124176, NaN, NaN, NaN, 0.0286883, "- N/A -   "
7.43, 207.588, 0.012451, NaN, NaN, NaN, 0.0286883, "- N/A -   "
7.45, 208.177, 0.0124871, NaN, NaN, NaN, 0.0274675, "- N/A -   "
7.47, 209.003, 0.0125176, NaN, NaN, NaN, 0.0286883, "- N/A -   "
7.49, 209.593, 0.0125509, NaN, NaN, NaN, 0.0299091, "- N/A -   "
7.51, 210.3, 0.0125787, NaN, NaN, NaN, 0.03112983, "- N/A -   "
7.53, 210.89, 0.0126065, NaN, NaN, NaN, 0.0335714, "- N/A -   "
7.55, 211.362, 0.0126342, NaN, NaN, NaN, 0.03601294, "- N/A -   "
7.57, 212.1875, 0.0126648, NaN, NaN, NaN, 0.0372337, "- N/A -   "
7.59, 212.6593, 0.0126925, NaN, NaN, NaN, 0.0396753, "- N/A -   "
7.61, 213.367, 0.0127203, NaN, NaN, NaN, 0.04211683, "- N/A -   "
7.63, 213.957, 0.0127536, NaN, NaN, NaN, 0.04211683, "- N/A -   "
7.65, 214.6644, 0.0127842, NaN, NaN, NaN, 0.0433376, "- N/A -   "
7.67, 215.372, 0.0128175, NaN, NaN, NaN, 0.0433376, "- N/A -   "
7.69, 216.316, 0.0128536, NaN, NaN, NaN, 0.04211683, "- N/A -   "
7.71, 217.023, 0.0128869, NaN, NaN, NaN, 0.04211683, "- N/A -   "
7.73, 217.849, 0.012923, NaN, NaN, NaN, 0.04089605, "- N/A -   "
7.75, 218.4387, 0.0129535, NaN, NaN, NaN, 0.04211683, "- N/A -   "
7.77, 219.264, 0.0129896, NaN, NaN, NaN, 0.04211683, "- N/A -   "
7.79, 219.8541, 0.01302019, NaN, NaN, NaN, 0.0433376, "- N/A -   "
7.81, 220.68, 0.0130563, NaN, NaN, NaN, 0.04089605, "- N/A -   "
7.83, 221.505, 0.0130896, NaN, NaN, NaN, 0.04089605, "- N/A -   "
7.85, 222.331, 0.0131257, NaN, NaN, NaN, 0.0396753, "- N/A -   "
7.87, 223.157, 0.0131646, NaN, NaN, NaN, 0.0372337, "- N/A -   "
7.89, 224.1002, 0.0132062, NaN, NaN, NaN, 0.0347922, "- N/A -   "
7.91, 225.044, 0.0132479, NaN, NaN, NaN, 0.0299091, "- N/A -   "
7.93, 225.987, 0.0132868, NaN, NaN, NaN, 0.0274675, "- N/A -   "
7.95, 226.695, 0.0133229, NaN, NaN, NaN, 0.0262467, "- N/A -   "
7.97, 227.639, 0.0133562, NaN, NaN, NaN, 0.0262467, "- N/A -   "
7.99, 228.228, 0.0133895, NaN, NaN, NaN, 0.0262467, "- N/A -   "
8.01, 229.054, 0.0134228, NaN, NaN, NaN, 0.0262467, "- N/A -   "
8.029, 229.644, 0.0134506, NaN, NaN, NaN, 0.0286883, "- N/A -   "
8.05, 230.351, 0.0134839, NaN, NaN, NaN, 0.0286883, "- N/A -   "
8.069, 231.0591, 0.0135145, NaN, NaN, NaN, 0.0299091, "- N/A -   "
8.09, 231.767, 0.013545, NaN, NaN, NaN, 0.03112983, "- N/A -   "
8.11, 232.357, 0.0135728, NaN, NaN, NaN, 0.0335714, "- N/A -   "
8.13, 233.0642, 0.0136033, NaN, NaN, NaN, 0.0347922, "- N/A -   "
8.15, 233.772, 0.0136339, NaN, NaN, NaN, 0.0372337, "- N/A -   "
8.17, 234.48, 0.0136672, NaN, NaN, NaN, 0.0372337, "- N/A -   "
8.19, 235.187, 0.0137005, NaN, NaN, NaN, 0.0372337, "- N/A -   "
8.21, 235.895, 0.0137338, NaN, NaN, NaN, 0.0372337, "- N/A -   "
8.23, 236.721, 0.0137699, NaN, NaN, NaN, 0.03601294, "- N/A -   "
8.25, 237.428, 0.013806, NaN, NaN, NaN, 0.03601294, "- N/A -   "
8.27, 238.136, 0.0138366, NaN, NaN, NaN, 0.03601294, "- N/A -   "
8.29, 238.844, 0.0138643, NaN, NaN, NaN, 0.0384545, "- N/A -   "
8.31, 239.433, 0.0138921, NaN, NaN, NaN, 0.04089605, "- N/A -   "
8.33, 240.0231, 0.0139199, NaN, NaN, NaN, 0.0433376, "- N/A -   "
8.35, 240.613, 0.0139532, NaN, NaN, NaN, 0.0433376, "- N/A -   "
8.37, 241.438, 0.0139837, NaN, NaN, NaN, 0.0445584, "- N/A -   "
8.39, 242.146, 0.0140143, NaN, NaN, NaN, 0.04577916, "- N/A -   "
8.41, 242.853, 0.0140448, NaN, NaN, NaN, 0.04699994, "- N/A -   "
8.43, 243.56, 0.0140781, NaN, NaN, NaN, 0.04699994, "- N/A -   "
8.45, 244.385, 0.0141142, NaN, NaN, NaN, 0.04699994, "- N/A -   "
8.47, 245.21, 0.0141476, NaN, NaN, NaN, 0.04577916, "- N/A -   "
[...]
20.2, 698.373, 0.0337237, NaN, NaN, NaN, 0.0335714, "- N/A -   "
20.37, 705.47, 0.03400688, NaN, NaN, NaN, 0.0335714, "- N/A -   "
20.54, 712.448, 0.03429011, NaN, NaN, NaN, 0.0335714, "- N/A -   "
20.71, 718.599, 0.03454557, NaN, NaN, NaN, 0.04577916, "- N/A -   "
20.88, 726.4055, 0.03485657, NaN, NaN, NaN, 0.0335714, "- N/A -   "
21.05, 733.8572, 0.0351481, NaN, NaN, NaN, 0.0299091, "- N/A -   "
21.22, 740.1261, 0.0354091, NaN, NaN, NaN, 0.0396753, "- N/A -   "
21.39, 746.868, 0.035684, NaN, NaN, NaN, 0.0433376, "- N/A -   "
21.56, 754.556, 0.0359867, NaN, NaN, NaN, 0.0347922, "- N/A -   "
21.73, 761.8898, 0.036281, NaN, NaN, NaN, 0.03112983, "- N/A -   "
21.9, 768.868, 0.03655594, NaN, NaN, NaN, 0.0347922, "- N/A -   "
22.07, 775.2555, 0.0368142, NaN, NaN, NaN, 0.04577916, "- N/A -   "
22.24, 783.2986, 0.03712795, NaN, NaN, NaN, 0.0323506, "- N/A -   "
22.41, 790.277, 0.03740007, NaN, NaN, NaN, 0.0372337, "- N/A -   "
22.58, 797.256, 0.0376805, NaN, NaN, NaN, 0.0384545, "- N/A -   "
22.75, 804.116, 0.0379554, NaN, NaN, NaN, 0.04211683, "- N/A -   "
22.92, 811.4494, 0.03824698, NaN, NaN, NaN, 0.0384545, "- N/A -   "
23.09, 819.1377, 0.0385441, NaN, NaN, NaN, 0.0323506, "- N/A -   "
23.26, 826.235, 0.0388301, NaN, NaN, NaN, 0.03112983, "- N/A -   "
23.43, 832.5034, 0.03908556, NaN, NaN, NaN, 0.0433376, "- N/A -   "
23.6, 840.192, 0.0393799, NaN, NaN, NaN, 0.0384545, "- N/A -   "
23.77, 847.6434, 0.0396715, NaN, NaN, NaN, 0.0347922, "- N/A -   "
23.94, 854.74, 0.0399547, NaN, NaN, NaN, 0.0347922, "- N/A -   "
24.11, 861.0091, 0.0402074, NaN, NaN, NaN, 0.0494415, "- N/A -   "
24.28, 868.9339, 0.0405156, NaN, NaN, NaN, 0.0372337, "- N/A -   "
24.45, 876.6222, 0.040821, NaN, NaN, NaN, 0.0274675, "- N/A -   "
24.62, 883.4825, 0.0410904, NaN, NaN, NaN, 0.0335714, "- N/A -   "
24.79, 889.9879, 0.04134861, NaN, NaN, NaN, 0.0445584, "- N/A -   "
24.96, 897.9127, 0.0416541, NaN, NaN, NaN, 0.0347922, "- N/A -   "
25.13, 905.601, 0.04195117, NaN, NaN, NaN, 0.0286883, "- N/A -   "
25.3, 912.4613, 0.04221496, NaN, NaN, NaN, 0.0372337, "- N/A -   "
25.47, 918.9667, 0.0424732, NaN, NaN, NaN, 0.0482207, "- N/A -   "
25.64, 926.773, 0.04277864, NaN, NaN, NaN, 0.0384545, "- N/A -   "
25.81, 934.5798, 0.0430785, NaN, NaN, NaN, 0.03112983, "- N/A -   "
25.98, 941.7949, 0.0433562, NaN, NaN, NaN, 0.0335714, "- N/A -   "
26.15, 948.7735, 0.0436311, NaN, NaN, NaN, 0.0372337, "- N/A -   "
26.32, 956.3435, 0.04391711, NaN, NaN, NaN, 0.0384545, "- N/A -   "
26.49, 963.795, 0.0442059, NaN, NaN, NaN, 0.03601294, "- N/A -   "
26.66, 971.01, 0.0444863, NaN, NaN, NaN, 0.03601294, "- N/A -   "
26.83, 977.9889, 0.04475291, NaN, NaN, NaN, 0.0433376, "- N/A -   "
27, 986.032, 0.0450556, NaN, NaN, NaN, 0.0347922, "- N/A -   "
27.17, 993.247, 0.0453388, NaN, NaN, NaN, 0.0347922, "- N/A -   "
27.34, 1000.82, 0.0456276, NaN, NaN, NaN, 0.0323506, "- N/A -   "
27.51, 1007.32, 0.045883, NaN, NaN, NaN, 0.0445584, "- N/A -   "
27.68, 1015.15, 0.0461802, NaN, NaN, NaN, 0.0384545, "- N/A -   "
27.85, 1023.14, 0.0464828, NaN, NaN, NaN, 0.0299091, "- N/A -   "
28.02, 1030.053, 0.0467494, NaN, NaN, NaN, 0.0384545, "- N/A -   "
28.19, 1036.97, 0.047016, NaN, NaN, NaN, 0.0445584, "- N/A -   "
28.36, 1045.198, 0.04732696, NaN, NaN, NaN, 0.0323506, "- N/A -   "
28.53, 1052.59, 0.047613, NaN, NaN, NaN, 0.03112983, "- N/A -   "
28.7, 1059.75, 0.0478851, NaN, NaN, NaN, 0.0372337, "- N/A -   "
28.87, 1066.66, 0.0481489, NaN, NaN, NaN, 0.0445584, "- N/A -   "
29.04, 1074.89, 0.0484543, NaN, NaN, NaN, 0.0347922, "- N/A -   "
29.21, 1082.17, 0.048732, NaN, NaN, NaN, 0.0372337, "- N/A -   "
29.38, 1089.68, 0.04902078, NaN, NaN, NaN, 0.03601294, "- N/A -   "
29.55, 1096.95, 0.0492901, NaN, NaN, NaN, 0.04089605, "- N/A -   "
29.72, 1104.7, 0.04958446, NaN, NaN, NaN, 0.03601294, "- N/A -   "
29.89, 1112.22, 0.04987602, NaN, NaN, NaN, 0.0323506, "- N/A -   "
30.06, 1119.85, 0.0501592, NaN, NaN, NaN, 0.0323506, "- N/A -   "
30.23, 1126.53, 0.0504203, NaN, NaN, NaN, 0.04211683, "- N/A -   "
30.4, 1134.28, 0.050709, NaN, NaN, NaN, 0.0396753, "- N/A -   "
30.57, 1142.15, 0.0510062, NaN, NaN, NaN, 0.0335714, "- N/A -   "
30.74, 1149.9, 0.0512977, NaN, NaN, NaN, 0.03112983, "- N/A -   "
30.91, 1156.22, 0.05154207, NaN, NaN, NaN, 0.0482207, "- N/A -   "
31.08, 1164.33, 0.0518447, NaN, NaN, NaN, 0.0396753, "- N/A -   "
31.25, 1172.56, 0.05215573, NaN, NaN, NaN, 0.0274675, "- N/A -   "
31.42, 1179.6, 0.0524251, NaN, NaN, NaN, 0.0335714, "- N/A -   "
31.59, 1186.51, 0.05268609, NaN, NaN, NaN, 0.0433376, "- N/A -   "
31.76, 1194.263, 0.0529776, NaN, NaN, NaN, 0.0396753, "- N/A -   "
31.93, 1202.25, 0.0532775, NaN, NaN, NaN, 0.0323506, "- N/A -   "
32.1, 1209.53, 0.0535469, NaN, NaN, NaN, 0.0384545, "- N/A -   "
32.27, 1216.44, 0.05381623, NaN, NaN, NaN, 0.0445584, "- N/A -   "
32.44, 1225.15, 0.05413278, NaN, NaN, NaN, 0.0299091, "- N/A -   "
32.61, 1232.185, 0.0544049, NaN, NaN, NaN, 0.0347922, "- N/A -   "
32.78, 1240.175, 0.0546965, NaN, NaN, NaN, 0.03112983, "- N/A -   "
32.95, 1247.09, 0.05496025, NaN, NaN, NaN, 0.0396753, "- N/A -   "
33.12, 1254.49, 0.0552407, NaN, NaN, NaN, 0.04089605, "- N/A -   "
33.29, 1262.36, 0.0555378, NaN, NaN, NaN, 0.0347922, "- N/A -   "
33.46, 1269.87, 0.055821, NaN, NaN, NaN, 0.0347922, "- N/A -   "
33.63, 1277.02, 0.05609039, NaN, NaN, NaN, 0.04089605, "- N/A -   "
33.8, 1284.78, 0.05637917, NaN, NaN, NaN, 0.0396753, "- N/A -   "
33.97, 1292.77, 0.05667906, NaN, NaN, NaN, 0.03112983, "- N/A -   "
34.14, 1300.4, 0.0569651, NaN, NaN, NaN, 0.0299091, "- N/A -   "
34.31, 1306.72, 0.0572094, NaN, NaN, NaN, 0.04699994, "- N/A -   "
34.48, 1314.71, 0.0575121, NaN, NaN, NaN, 0.0384545, "- N/A -   "
34.65, 1322.58, 0.0578064, NaN, NaN, NaN, 0.0335714, "- N/A -   "
34.82, 1330.21, 0.0580924, NaN, NaN, NaN, 0.0323506, "- N/A -   "
34.99, 1337.01, 0.0583562, NaN, NaN, NaN, 0.04089605, "- N/A -   "
35.16, 1345, 0.0586506, NaN, NaN, NaN, 0.03601294, "- N/A -   "
35.33, 1353.11, 0.058956, NaN, NaN, NaN, 0.0274675, "- N/A -   "
35.5, 1360.14, 0.0592226, NaN, NaN, NaN, 0.0347922, "- N/A -   "
35.67, 1367.06, 0.0594836, NaN, NaN, NaN, 0.0445584, "- N/A -   "
35.84, 1375.29, 0.05978902, NaN, NaN, NaN, 0.0347922, "- N/A -   "
36.01, 1382.56, 0.0600639, NaN, NaN, NaN, 0.0396753, "- N/A -   "
36.18, 1390.31, 0.0603555, NaN, NaN, NaN, 0.0347922, "- N/A -   "
36.35, 1397.349, 0.0606248, NaN, NaN, NaN, 0.04089605, "- N/A -   "
36.52, 1405.22, 0.0609136, NaN, NaN, NaN, 0.0384545, "- N/A -   "
36.69, 1413.09, 0.0612107, NaN, NaN, NaN, 0.0323506, "- N/A -   "
36.86, 1420.484, 0.06149117, NaN, NaN, NaN, 0.0335714, "- N/A -   "
37.03, 1427.4, 0.06175218, NaN, NaN, NaN, 0.0433376, "- N/A -   "
37.2, 1435.15, 0.0620437, NaN, NaN, NaN, 0.0396753, "- N/A -   "
37.37, 1442.9, 0.0623381, NaN, NaN, NaN, 0.0347922, "- N/A -   "
37.54, 1450.774, 0.06262964, NaN, NaN, NaN, 0.03112983, "- N/A -   "
37.71, 1457.452, 0.0628851, NaN, NaN, NaN, 0.0433376, "- N/A -   "
37.88, 1465.44, 0.06318499, NaN, NaN, NaN, 0.03601294, "- N/A -   "
38.05, 1473.31, 0.0634821, NaN, NaN, NaN, 0.0299091, "- N/A -   "
38.22, 1480.71, 0.063757, NaN, NaN, NaN, 0.0335714, "- N/A -   "
38.39, 1487.38, 0.06401524, NaN, NaN, NaN, 0.0445584, "- N/A -   "
38.56, 1495.02, 0.0643068, NaN, NaN, NaN, 0.04089605, "- N/A -   "
38.73, 1503.36, 0.06461501, NaN, NaN, NaN, 0.0299091, "- N/A -   "
38.9, 1510.4, 0.06488436, NaN, NaN, NaN, 0.03601294, "- N/A -   "
39.07, 1517.44, 0.06514815, NaN, NaN, NaN, 0.0445584, "- N/A -   "
39.24, 1525.43, 0.06545082, NaN, NaN, NaN, 0.03601294, "- N/A -   "
39.41, 1533.42, 0.06574793, NaN, NaN, NaN, 0.0299091, "- N/A -   "
39.58, 1540.69, 0.06602283, NaN, NaN, NaN, 0.0335714, "- N/A -   "
39.75, 1547.61, 0.0662866, NaN, NaN, NaN, 0.04211683, "- N/A -   "
39.92, 1555.48, 0.06658096, NaN, NaN, NaN, 0.0384545, "- N/A -   "
40.09, 1563.23, 0.0668753, NaN, NaN, NaN, 0.0335714, "- N/A -   "
40.26, 1570.503, 0.06715297, NaN, NaN, NaN, 0.03601294, "- N/A -   "
40.43, 1577.54, 0.0674279, NaN, NaN, NaN, 0.0396753, "- N/A -   "
40.6, 1585.05, 0.06770554, NaN, NaN, NaN, 0.04211683, "- N/A -   "
40.77, 1593.04, 0.06801376, NaN, NaN, NaN, 0.03112983, "- N/A -   "
40.94, 1600.55, 0.06829699, NaN, NaN, NaN, 0.03112983, "- N/A -   "
41.11, 1606.994, 0.0685469, NaN, NaN, NaN, 0.04577916, "- N/A -   "
41.28, 1614.75, 0.068844, NaN, NaN, NaN, 0.0396753, "- N/A -   "
41.45, 1622.5, 0.0691439, NaN, NaN, NaN, 0.0323506, "- N/A -   "
41.62, 1630.01, 0.0694327, NaN, NaN, NaN, 0.0299091, "- N/A -   "
41.79, 1636.45, 0.06968259, NaN, NaN, NaN, 0.0445584, "- N/A -   "
41.96, 1644.08, 0.0699769, NaN, NaN, NaN, 0.0396753, "- N/A -   "
41.972, 1644.68, 0.0699991, NaN, NaN, NaN, 0.0396753, "- N/A -   "