File: 2_Tensile_Data/Hamel_ForceTest_Bolt5_Test4.csv
Time, Load (lb), Position (in), AxialStrain (in), TransverseStrain (in), Auxiliary (), Control Out (V), Stress (psi)
0.0, 1.17947, 0.0, NaN, NaN, NaN, 0.095831, "- N/A -   "
0.01, 1.65126, 3.054427E-5, NaN, NaN, NaN, 0.09949338, "- N/A -   "
0.02, 2.241, 6.386529E-5, NaN, NaN, NaN, 0.09338949, "- N/A -   "
0.03, 2.712792, 9.16328e-05, NaN, NaN, NaN, 0.0872856, "- N/A -   "
0.04, 3.30253, 0.000122177, NaN, NaN, NaN, 0.08118171, "- N/A -   "
0.05, 3.774319, 0.000147168, NaN, NaN, NaN, 0.07751938, "- N/A -   "
0.06, 4.36406, 0.000172159, NaN, NaN, NaN, 0.0750778, "- N/A -   "
0.07, 4.59995, 0.000191596, NaN, NaN, NaN, 0.07263627, "- N/A -   "
0.08, 5.071741, 2.138099E-4, NaN, NaN, NaN, 0.0701947, "- N/A -   "
0.09, 5.425584, 0.000233247, NaN, NaN, NaN, 0.0689739, "- N/A -   "
0.1, 5.779426, 2.526844E-4, NaN, NaN, NaN, 0.06775316, "- N/A -   "
0.11, 6.13327, 2.721217E-4, NaN, NaN, NaN, 0.06775316, "- N/A -   "
0.12, 6.487111, 0.000288782, NaN, NaN, NaN, 0.06653238, "- N/A -   "
0.13, 6.84095, 3.109962E-4, NaN, NaN, NaN, 0.0640908, "- N/A -   "
0.14, 7.1948, 0.000327657, NaN, NaN, NaN, 0.0640908, "- N/A -   "
0.15, 7.666586, 0.000347094, NaN, NaN, NaN, 0.06287005, "- N/A -   "
0.16, 7.90248, 0.000366531, NaN, NaN, NaN, 0.06164927, "- N/A -   "
0.17, 8.37427, 3.859685E-4, NaN, NaN, NaN, 0.0604285, "- N/A -   "
0.18, 8.728113, 0.000405406, NaN, NaN, NaN, 0.0592077, "- N/A -   "
0.19, 9.199903, 4.276198E-4, NaN, NaN, NaN, 0.0579869, "- N/A -   "
0.2, 9.435798, 0.000447057, NaN, NaN, NaN, 0.0555454, "- N/A -   "
0.21, 9.907588, 0.000469271, NaN, NaN, NaN, 0.0531038, "- N/A -   "
0.22, 10.26143, 4.887083E-4, NaN, NaN, NaN, 0.05188305, "- N/A -   "
0.23, 10.73322, 0.000510922, NaN, NaN, NaN, 0.0494415, "- N/A -   "
0.24, 11.0871, 0.000533136, NaN, NaN, NaN, 0.0482207, "- N/A -   "
0.25, 11.4409, 5.525736E-4, NaN, NaN, NaN, 0.04699994, "- N/A -   "
0.26, 11.7947, 5.720109E-4, NaN, NaN, NaN, 0.04577916, "- N/A -   "
0.27, 12.14859, 0.000591448, NaN, NaN, NaN, 0.0445584, "- N/A -   "
0.28, 12.3845, 6.108854E-4, NaN, NaN, NaN, 0.0433376, "- N/A -   "
0.29, 12.8563, 0.000627546, NaN, NaN, NaN, 0.04211683, "- N/A -   "
0.3, 13.2101, 6.497599E-4, NaN, NaN, NaN, 0.04089605, "- N/A -   "
0.31, 13.564, 0.00066642, NaN, NaN, NaN, 0.0396753, "- N/A -   "
0.32, 13.9178, 6.858577E-4, NaN, NaN, NaN, 0.0384545, "- N/A -   "
0.33, 14.2716, 0.000705295, NaN, NaN, NaN, 0.0372337, "- N/A -   "
0.34, 14.6255, 7.219555E-4, NaN, NaN, NaN, 0.0372337, "- N/A -   "
0.35, 14.8614, 7.38616E-4, NaN, NaN, NaN, 0.0372337, "- N/A -   "
0.36, 15.0973, 7.552765E-4, NaN, NaN, NaN, 0.0372337, "- N/A -   "
0.37, 15.4511, 7.71937E-4, NaN, NaN, NaN, 0.0372337, "- N/A -   "
0.38, 15.805, 7.885975E-4, NaN, NaN, NaN, 0.0372337, "- N/A -   "
0.39, 16.1588, 8.080348E-4, NaN, NaN, NaN, 0.03601294, "- N/A -   "
0.4, 16.3947, 8.27472E-4, NaN, NaN, NaN, 0.03601294, "- N/A -   "
0.41, 16.74854, 0.000844133, NaN, NaN, NaN, 0.0347922, "- N/A -   "
0.47, 18.7536, 9.552026E-4, NaN, NaN, NaN, 0.03112983, "- N/A -   "
0.53, 20.6408, 0.00105517, NaN, NaN, NaN, 0.0299091, "- N/A -   "
0.59, 22.1741, 0.0011468, NaN, NaN, NaN, 0.0335714, "- N/A -   "
0.65, 23.7074, 0.00123565, NaN, NaN, NaN, 0.0384545, "- N/A -   "
0.71, 25.2408, 0.00132451, NaN, NaN, NaN, 0.0433376, "- N/A -   "
0.77, 27.1279, 0.00142447, NaN, NaN, NaN, 0.0433376, "- N/A -   "
0.83, 28.7792, 0.00152166, NaN, NaN, NaN, 0.0445584, "- N/A -   "
0.89, 30.78429, 0.001621623, NaN, NaN, NaN, 0.0445584, "- N/A -   "
0.95, 32.7894, 0.00173269, NaN, NaN, NaN, 0.0396753, "- N/A -   "
1.01, 35.0304, 0.00185487, NaN, NaN, NaN, 0.0299091, "- N/A -   "
1.07, 37.0355, 0.00195761, NaN, NaN, NaN, 0.0286883, "- N/A -   "
1.13, 38.8047, 0.0020548, NaN, NaN, NaN, 0.0299091, "- N/A -   "
1.19, 40.456, 0.00214365, NaN, NaN, NaN, 0.0347922, "- N/A -   "
1.25, 42.3431, 0.002238062, NaN, NaN, NaN, 0.0372337, "- N/A -   "
1.31, 44.2303, 0.002338025, NaN, NaN, NaN, 0.0372337, "- N/A -   "
1.37, 46.23541, 0.00243799, NaN, NaN, NaN, 0.0372337, "- N/A -   "
1.43, 47.8867, 0.00252684, NaN, NaN, NaN, 0.04211683, "- N/A -   "
1.49, 49.7738, 0.00262125, NaN, NaN, NaN, 0.0445584, "- N/A -   "
1.55, 51.7789, 0.00272399, NaN, NaN, NaN, 0.0433376, "- N/A -   "
1.61, 54.0199, 0.002840617, NaN, NaN, NaN, 0.03601294, "- N/A -   "
1.67, 56.143, 0.002951687, NaN, NaN, NaN, 0.03112983, "- N/A -   "
1.73, 58.1481, 0.003057204, NaN, NaN, NaN, 0.0299091, "- N/A -   "
1.79, 59.79937, 0.00314606, NaN, NaN, NaN, 0.0335714, "- N/A -   "
1.85, 61.56858, 0.00323769, NaN, NaN, NaN, 0.0372337, "- N/A -   "
1.91, 63.6916, 0.00334599, NaN, NaN, NaN, 0.0335714, "- N/A -   "
1.97, 65.5788, 0.00344317, NaN, NaN, NaN, 0.0347922, "- N/A -   "
2.03, 67.23006, 0.00353203, NaN, NaN, NaN, 0.0396753, "- N/A -   "
2.09, 68.8813, 0.003626438, NaN, NaN, NaN, 0.04211683, "- N/A -   "
2.15, 71.00438, 0.00373473, NaN, NaN, NaN, 0.0396753, "- N/A -   "
2.21, 72.65564, 0.00382914, NaN, NaN, NaN, 0.04089605, "- N/A -   "
2.27, 74.8966, 0.00393743, NaN, NaN, NaN, 0.0372337, "- N/A -   "
2.33, 76.7838, 0.00404295, NaN, NaN, NaN, 0.03601294, "- N/A -   "
2.39, 78.67096, 0.00414569, NaN, NaN, NaN, 0.0335714, "- N/A -   "
2.45, 80.67606, 0.00424843, NaN, NaN, NaN, 0.0323506, "- N/A -   "
2.51, 82.44528, 0.00434839, NaN, NaN, NaN, 0.0323506, "- N/A -   "
2.57, 84.21449, 0.00444558, NaN, NaN, NaN, 0.0335714, "- N/A -   "
2.63, 86.1017, 0.004542766, NaN, NaN, NaN, 0.0347922, "- N/A -   "
2.69, 87.8709, 0.004645506, NaN, NaN, NaN, 0.0347922, "- N/A -   "
2.75, 89.52213, 0.004739915, NaN, NaN, NaN, 0.03601294, "- N/A -   "
2.81, 91.1734, 0.004837102, NaN, NaN, NaN, 0.0384545, "- N/A -   "
2.87, 92.82466, 0.004928735, NaN, NaN, NaN, 0.04211683, "- N/A -   "
2.93, 94.59387, 0.005023144, NaN, NaN, NaN, 0.0433376, "- N/A -   "
2.99, 96.599, 0.005134214, NaN, NaN, NaN, 0.0396753, "- N/A -   "
3.05, 98.60408, 0.005245284, NaN, NaN, NaN, 0.0347922, "- N/A -   "
3.11, 100.6092, 0.00534802, NaN, NaN, NaN, 0.0323506, "- N/A -   "
3.17, 102.143, 0.00544521, NaN, NaN, NaN, 0.0335714, "- N/A -   "
3.23, 104.03, 0.00555073, NaN, NaN, NaN, 0.0323506, "- N/A -   "
3.29, 105.917, 0.00565902, NaN, NaN, NaN, 0.0286883, "- N/A -   "
3.35, 107.686, 0.00575343, NaN, NaN, NaN, 0.03112983, "- N/A -   "
3.41, 109.219, 0.00583951, NaN, NaN, NaN, 0.03601294, "- N/A -   "
3.47, 110.753, 0.005925589, NaN, NaN, NaN, 0.04211683, "- N/A -   "
3.53, 112.286, 0.00601722, NaN, NaN, NaN, 0.0482207, "- N/A -   "
3.59, 114.055, 0.006119961, NaN, NaN, NaN, 0.04577916, "- N/A -   "
3.65, 116.178, 0.006231031, NaN, NaN, NaN, 0.04089605, "- N/A -   "
3.71, 118.065, 0.00633932, NaN, NaN, NaN, 0.0372337, "- N/A -   "
3.77, 119.953, 0.006447618, NaN, NaN, NaN, 0.0347922, "- N/A -   "
3.83, 121.958, 0.006550358, NaN, NaN, NaN, 0.0323506, "- N/A -   "
3.89, 123.609, 0.006658651, NaN, NaN, NaN, 0.0299091, "- N/A -   "
3.95, 125.614, 0.006758614, NaN, NaN, NaN, 0.0286883, "- N/A -   "
4.01, 127.147, 0.00685025, NaN, NaN, NaN, 0.0323506, "- N/A -   "
4.07, 128.563, 0.00693355, NaN, NaN, NaN, 0.0396753, "- N/A -   "
4.13, 130.214, 0.00702518, NaN, NaN, NaN, 0.0433376, "- N/A -   "
4.19, 131.983, 0.00712515, NaN, NaN, NaN, 0.0433376, "- N/A -   "
4.25, 133.752, 0.00722233, NaN, NaN, NaN, 0.0445584, "- N/A -   "
4.31, 135.522, 0.00732507, NaN, NaN, NaN, 0.0445584, "- N/A -   "
4.37, 137.527, 0.007436142, NaN, NaN, NaN, 0.0384545, "- N/A -   "
4.43, 139.65, 0.00755277, NaN, NaN, NaN, 0.0323506, "- N/A -   "
4.49, 141.537, 0.007655505, NaN, NaN, NaN, 0.03112983, "- N/A -   "
4.55, 143.424, 0.007755468, NaN, NaN, NaN, 0.0299091, "- N/A -   "
4.61, 145.0754, 0.007852655, NaN, NaN, NaN, 0.03112983, "- N/A -   "
4.67, 146.727, 0.007944287, NaN, NaN, NaN, 0.0347922, "- N/A -   "
4.73, 148.496, 0.008049804, NaN, NaN, NaN, 0.0323506, "- N/A -   "
4.79, 150.029, 0.008135883, NaN, NaN, NaN, 0.0384545, "- N/A -   "
4.85, 151.68, 0.008227516, NaN, NaN, NaN, 0.04211683, "- N/A -   "
4.91, 153.332, 0.008321925, NaN, NaN, NaN, 0.0445584, "- N/A -   "
4.97, 155.219, 0.008424665, NaN, NaN, NaN, 0.0433376, "- N/A -   "
5.03, 157.46, 0.008541289, NaN, NaN, NaN, 0.03601294, "- N/A -   "
5.09, 159.583, 0.008652359, NaN, NaN, NaN, 0.03112983, "- N/A -   "
5.15, 161.234, 0.008752322, NaN, NaN, NaN, 0.03112983, "- N/A -   "
5.21, 163.0034, 0.008846732, NaN, NaN, NaN, 0.0335714, "- N/A -   "
5.27, 164.773, 0.008941141, NaN, NaN, NaN, 0.03601294, "- N/A -   "
5.33, 166.778, 0.009046658, NaN, NaN, NaN, 0.0335714, "- N/A -   "
5.39, 168.429, 0.00914662, NaN, NaN, NaN, 0.0335714, "- N/A -   "
5.45, 170.1982, 0.009238253, NaN, NaN, NaN, 0.0372337, "- N/A -   "
5.51, 171.732, 0.00932711, NaN, NaN, NaN, 0.0433376, "- N/A -   "
5.57, 173.973, 0.009435403, NaN, NaN, NaN, 0.0384545, "- N/A -   "
5.63, 175.742, 0.009532589, NaN, NaN, NaN, 0.0396753, "- N/A -   "
5.69, 177.629, 0.00963811, NaN, NaN, NaN, 0.0384545, "- N/A -   "
5.75, 179.634, 0.009740846, NaN, NaN, NaN, 0.03601294, "- N/A -   "
5.81, 181.403, 0.009840809, NaN, NaN, NaN, 0.03601294, "- N/A -   "
5.87, 183.408, 0.009946326, NaN, NaN, NaN, 0.0335714, "- N/A -   "
5.93, 185.413, 0.0100518, NaN, NaN, NaN, 0.0323506, "- N/A -   "
5.99, 187.183, 0.010149, NaN, NaN, NaN, 0.0323506, "- N/A -   "
6.05, 189.188, 0.010249, NaN, NaN, NaN, 0.0323506, "- N/A -   "
6.11, 191.193, 0.0103545, NaN, NaN, NaN, 0.0299091, "- N/A -   "
6.17, 192.726, 0.0104406, NaN, NaN, NaN, 0.03601294, "- N/A -   "
6.23, 194.495, 0.0105294, NaN, NaN, NaN, 0.04089605, "- N/A -   "
6.29, 196.147, 0.0106266, NaN, NaN, NaN, 0.04211683, "- N/A -   "
6.35, 198.152, 0.010721, NaN, NaN, NaN, 0.0445584, "- N/A -   "
6.41, 200.275, 0.0108293, NaN, NaN, NaN, 0.04089605, "- N/A -   "
6.47, 202.516, 0.0109432, NaN, NaN, NaN, 0.0347922, "- N/A -   "
6.53, 204.521, 0.0110487, NaN, NaN, NaN, 0.0323506, "- N/A -   "
6.59, 206.29, 0.0111459, NaN, NaN, NaN, 0.0335714, "- N/A -   "
6.65, 208.295, 0.0112458, NaN, NaN, NaN, 0.0335714, "- N/A -   "
6.71, 210.418, 0.0113569, NaN, NaN, NaN, 0.0286883, "- N/A -   "
6.77, 212.305, 0.0114513, NaN, NaN, NaN, 0.03112983, "- N/A -   "
6.83, 213.957, 0.011543, NaN, NaN, NaN, 0.03601294, "- N/A -   "
6.89, 215.49, 0.0116263, NaN, NaN, NaN, 0.04211683, "- N/A -   "
6.95, 217.377, 0.0117179, NaN, NaN, NaN, 0.04577916, "- N/A -   "
7.01, 219.264, 0.0118179, NaN, NaN, NaN, 0.04699994, "- N/A -   "
7.07, 221.623, 0.0119317, NaN, NaN, NaN, 0.0396753, "- N/A -   "
7.13, 223.746, 0.0120372, NaN, NaN, NaN, 0.0372337, "- N/A -   "
7.19, 225.751, 0.0121427, NaN, NaN, NaN, 0.0347922, "- N/A -   "
7.25, 227.875, 0.0122483, NaN, NaN, NaN, 0.0323506, "- N/A -   "
7.31, 229.88, 0.012351, NaN, NaN, NaN, 0.03112983, "- N/A -   "
7.37, 232.121, 0.0124621, NaN, NaN, NaN, 0.0262467, "- N/A -   "
7.43, 233.89, 0.0125509, NaN, NaN, NaN, 0.03112983, "- N/A -   "
7.49, 235.5411, 0.0126426, NaN, NaN, NaN, 0.0347922, "- N/A -   "
7.55, 237.192, 0.0127259, NaN, NaN, NaN, 0.04211683, "- N/A -   "
7.61, 238.962, 0.0128258, NaN, NaN, NaN, 0.0433376, "- N/A -   "
7.67, 241.085, 0.012923, NaN, NaN, NaN, 0.0433376, "- N/A -   "
7.73, 243.207, 0.01302852, NaN, NaN, NaN, 0.04089605, "- N/A -   "
7.79, 245.446, 0.0131368, NaN, NaN, NaN, 0.0372337, "- N/A -   "
7.85, 247.802, 0.0132562, NaN, NaN, NaN, 0.0286883, "- N/A -   "
7.91, 249.923, 0.0133562, NaN, NaN, NaN, 0.0286883, "- N/A -   "
7.97, 251.808, 0.0134534, NaN, NaN, NaN, 0.03112983, "- N/A -   "
8.03, 253.811, 0.0135505, NaN, NaN, NaN, 0.0323506, "- N/A -   "
8.09, 255.461, 0.0136394, NaN, NaN, NaN, 0.0372337, "- N/A -   "
8.15, 257.582, 0.0137394, NaN, NaN, NaN, 0.0372337, "- N/A -   "
8.21, 259.349, 0.0138338, NaN, NaN, NaN, 0.0396753, "- N/A -   "
8.27, 261.234, 0.0139226, NaN, NaN, NaN, 0.0445584, "- N/A -   "
8.33, 263.2374, 0.0140226, NaN, NaN, NaN, 0.04577916, "- N/A -   "
8.39, 265.476, 0.01413089, NaN, NaN, NaN, 0.04089605, "- N/A -   "
8.45, 267.8326, 0.0142447, NaN, NaN, NaN, 0.0347922, "- N/A -   "
8.51, 270.189, 0.0143586, NaN, NaN, NaN, 0.0299091, "- N/A -   "
8.57, 272.074, 0.0144502, NaN, NaN, NaN, 0.0323506, "- N/A -   "
8.63, 273.842, 0.0145391, NaN, NaN, NaN, 0.0372337, "- N/A -   "
8.69, 275.8448, 0.014639, NaN, NaN, NaN, 0.0372337, "- N/A -   "
8.75, 278.2013, 0.0147473, NaN, NaN, NaN, 0.0335714, "- N/A -   "
8.81, 280.204, 0.0148473, NaN, NaN, NaN, 0.0335714, "- N/A -   "
8.87, 282.207, 0.0149417, NaN, NaN, NaN, 0.03601294, "- N/A -   "
8.9, 283.032, 0.0149861, NaN, NaN, NaN, 0.0396753, "- N/A -   "
8.91, 283.386, 0.015, NaN, NaN, NaN, 0.0396753, "- N/A -   "
8.92, 283.503, 0.0150167, NaN, NaN, NaN, 0.04089605, "- N/A -   "
8.95, 284.682, 0.0150639, NaN, NaN, NaN, 0.04089605, "- N/A -   "
8.98, 285.624, 0.0151139, NaN, NaN, NaN, 0.04211683, "- N/A -   "
9.01, 286.8026, 0.0151638, NaN, NaN, NaN, 0.04089605, "- N/A -   "
9.04, 287.7452, 0.0152166, NaN, NaN, NaN, 0.0396753, "- N/A -   "
9.07, 289.041, 0.0152721, NaN, NaN, NaN, 0.0384545, "- N/A -   "
9.1, 290.22, 0.01532767, NaN, NaN, NaN, 0.03601294, "- N/A -   "
9.13, 291.28, 0.0153777, NaN, NaN, NaN, 0.0347922, "- N/A -   "
9.16, 292.2226, 0.0154249, NaN, NaN, NaN, 0.03601294, "- N/A -   "
9.19, 293.283, 0.0154721, NaN, NaN, NaN, 0.0372337, "- N/A -   "
9.22, 294.343, 0.0155248, NaN, NaN, NaN, 0.03601294, "- N/A -   "
9.25, 295.522, 0.0155776, NaN, NaN, NaN, 0.0347922, "- N/A -   "
9.28, 296.582, 0.0156303, NaN, NaN, NaN, 0.0335714, "- N/A -   "
9.31, 297.76, 0.0156831, NaN, NaN, NaN, 0.0323506, "- N/A -   "
9.34, 298.5852, 0.0157331, NaN, NaN, NaN, 0.0323506, "- N/A -   "
9.37, 299.7635, 0.0157831, NaN, NaN, NaN, 0.0323506, "- N/A -   "
9.4, 300.7061, 0.0158303, NaN, NaN, NaN, 0.0335714, "- N/A -   "
9.43, 301.7665, 0.0158775, NaN, NaN, NaN, 0.0347922, "- N/A -   "
9.46, 302.591, 0.0159247, NaN, NaN, NaN, 0.03601294, "- N/A -   "
9.49, 303.652, 0.0159747, NaN, NaN, NaN, 0.0372337, "- N/A -   "
9.52, 304.7122, 0.0160219, NaN, NaN, NaN, 0.0372337, "- N/A -   "
9.55, 305.7726, 0.01607184, NaN, NaN, NaN, 0.0372337, "- N/A -   "
9.58, 306.597, 0.016119, NaN, NaN, NaN, 0.0384545, "- N/A -   "
9.61, 307.54, 0.0161607, NaN, NaN, NaN, 0.04211683, "- N/A -   "
9.64, 308.6, 0.0162079, NaN, NaN, NaN, 0.0433376, "- N/A -   "
9.67, 309.6609, 0.0162579, NaN, NaN, NaN, 0.0433376, "- N/A -   "
9.7, 310.7213, 0.0163079, NaN, NaN, NaN, 0.0445584, "- N/A -   "
9.73, 311.6639, 0.0163578, NaN, NaN, NaN, 0.0433376, "- N/A -   "
9.76, 312.96, 0.0164106, NaN, NaN, NaN, 0.0433376, "- N/A -   "
9.79, 314.02, 0.0164634, NaN, NaN, NaN, 0.04089605, "- N/A -   "
9.82, 315.1987, 0.0165189, NaN, NaN, NaN, 0.0384545, "- N/A -   "
9.85, 316.495, 0.0165772, NaN, NaN, NaN, 0.03601294, "- N/A -   "
9.88, 317.673, 0.0166327, NaN, NaN, NaN, 0.0323506, "- N/A -   "
9.91, 318.8513, 0.0166855, NaN, NaN, NaN, 0.03112983, "- N/A -   "
9.94, 319.912, 0.0167355, NaN, NaN, NaN, 0.0323506, "- N/A -   "
9.97, 320.737, 0.0167799, NaN, NaN, NaN, 0.0335714, "- N/A -   "
10, 321.797, 0.0168271, NaN, NaN, NaN, 0.0347922, "- N/A -   "
10.03, 322.74, 0.0168771, NaN, NaN, NaN, 0.0347922, "- N/A -   "
10.06, 323.918, 0.0169299, NaN, NaN, NaN, 0.0335714, "- N/A -   "
10.09, 325.2139, 0.0169826, NaN, NaN, NaN, 0.0323506, "- N/A -   "
10.12, 326.274, 0.01703815, NaN, NaN, NaN, 0.0299091, "- N/A -   "
10.15, 327.57, 0.0170937, NaN, NaN, NaN, 0.0286883, "- N/A -   "
10.18, 328.513, 0.01714089, NaN, NaN, NaN, 0.0286883, "- N/A -   "
10.21, 329.456, 0.0171853, NaN, NaN, NaN, 0.03112983, "- N/A -   "
10.24, 330.398, 0.0172297, NaN, NaN, NaN, 0.0335714, "- N/A -   "
10.27, 330.987, 0.01726862, NaN, NaN, NaN, 0.0384545, "- N/A -   "
10.3, 332.048, 0.0173103, NaN, NaN, NaN, 0.04211683, "- N/A -   "
10.33, 332.99, 0.0173575, NaN, NaN, NaN, 0.0445584, "- N/A -   "
10.36, 333.933, 0.0173991, NaN, NaN, NaN, 0.04699994, "- N/A -   "
10.39, 334.876, 0.0174463, NaN, NaN, NaN, 0.0482207, "- N/A -   "
10.42, 336.054, 0.0174991, NaN, NaN, NaN, 0.04699994, "- N/A -   "
10.45, 337.468, 0.0175602, NaN, NaN, NaN, 0.04211683, "- N/A -   "
10.48, 338.6461, 0.01761849, NaN, NaN, NaN, 0.0384545, "- N/A -   "
10.51, 339.942, 0.0176768, NaN, NaN, NaN, 0.03601294, "- N/A -   "
10.54, 341.12, 0.0177268, NaN, NaN, NaN, 0.0347922, "- N/A -   "
10.57, 342.181, 0.01778232, NaN, NaN, NaN, 0.0335714, "- N/A -   "
10.6, 343.123, 0.0178295, NaN, NaN, NaN, 0.0335714, "- N/A -   "
10.63, 344.302, 0.0178795, NaN, NaN, NaN, 0.0335714, "- N/A -   "
10.66, 345.48, 0.017935, NaN, NaN, NaN, 0.03112983, "- N/A -   "
10.69, 346.7761, 0.0179934, NaN, NaN, NaN, 0.0286883, "- N/A -   "
10.72, 347.954, 0.0180433, NaN, NaN, NaN, 0.0274675, "- N/A -   "
10.75, 349.015, 0.0180933, NaN, NaN, NaN, 0.0274675, "- N/A -   "
10.78, 349.9574, 0.0181433, NaN, NaN, NaN, 0.0274675, "- N/A -   "
10.81, 351.018, 0.0181877, NaN, NaN, NaN, 0.0299091, "- N/A -   "
10.84, 351.7248, 0.0182266, NaN, NaN, NaN, 0.0347922, "- N/A -   "
10.87, 352.6674, 0.018271, NaN, NaN, NaN, 0.0372337, "- N/A -   "
10.9, 353.728, 0.0183182, NaN, NaN, NaN, 0.0396753, "- N/A -   "
10.93, 354.5526, 0.0183599, NaN, NaN, NaN, 0.04211683, "- N/A -   "
10.96, 355.4952, 0.0184043, NaN, NaN, NaN, 0.0445584, "- N/A -   "
10.99, 356.556, 0.0184515, NaN, NaN, NaN, 0.04577916, "- N/A -   "
11.02, 357.852, 0.0185071, NaN, NaN, NaN, 0.0433376, "- N/A -   "
11.05, 359.03, 0.01855981, NaN, NaN, NaN, 0.04211683, "- N/A -   "
11.08, 360.09, 0.018607, NaN, NaN, NaN, 0.0433376, "- N/A -   "
11.11, 361.151, 0.0186598, NaN, NaN, NaN, 0.04211683, "- N/A -   "
[...]
15.08, 514.21, 0.02527677, NaN, NaN, NaN, 0.04211683, "- N/A -   "
15.21, 519.414, 0.02549058, NaN, NaN, NaN, 0.0433376, "- N/A -   "
15.34, 525.446, 0.0257377, NaN, NaN, NaN, 0.0299091, "- N/A -   "
15.47, 530.5325, 0.025946, NaN, NaN, NaN, 0.0335714, "- N/A -   "
15.6, 535.7368, 0.02616533, NaN, NaN, NaN, 0.0323506, "- N/A -   "
15.73, 540.7046, 0.026368, NaN, NaN, NaN, 0.0384545, "- N/A -   "
15.86, 545.909, 0.0265846, NaN, NaN, NaN, 0.0384545, "- N/A -   "
15.99, 551.232, 0.026804, NaN, NaN, NaN, 0.0384545, "- N/A -   "
16.12, 556.7908, 0.0270289, NaN, NaN, NaN, 0.0335714, "- N/A -   "
16.25, 561.9951, 0.02724549, NaN, NaN, NaN, 0.0335714, "- N/A -   "
16.38, 567.4361, 0.0274649, NaN, NaN, NaN, 0.0335714, "- N/A -   "
16.51, 572.049, 0.0276592, NaN, NaN, NaN, 0.04211683, "- N/A -   "
16.64, 577.6083, 0.0278814, NaN, NaN, NaN, 0.04089605, "- N/A -   "
16.77, 583.404, 0.0281146, NaN, NaN, NaN, 0.0335714, "- N/A -   "
16.9, 588.8449, 0.0283423, NaN, NaN, NaN, 0.0274675, "- N/A -   "
17.03, 594.049, 0.0285478, NaN, NaN, NaN, 0.0323506, "- N/A -   "
17.16, 598.662, 0.0287422, NaN, NaN, NaN, 0.0433376, "- N/A -   "
17.29, 604.103, 0.02896152, NaN, NaN, NaN, 0.04211683, "- N/A -   "
17.42, 609.781, 0.029192, NaN, NaN, NaN, 0.03601294, "- N/A -   "
17.55, 615.458, 0.0294197, NaN, NaN, NaN, 0.03112983, "- N/A -   "
17.68, 620.6624, 0.0296335, NaN, NaN, NaN, 0.0323506, "- N/A -   "
17.81, 625.2754, 0.02982509, NaN, NaN, NaN, 0.0433376, "- N/A -   "
17.94, 630.598, 0.0300417, NaN, NaN, NaN, 0.0433376, "- N/A -   "
18.07, 636.7486, 0.03028603, NaN, NaN, NaN, 0.03112983, "- N/A -   "
18.2, 642.0712, 0.0305026, NaN, NaN, NaN, 0.0323506, "- N/A -   "
18.33, 647.3939, 0.0307109, NaN, NaN, NaN, 0.0347922, "- N/A -   "
18.46, 652.48, 0.03091913, NaN, NaN, NaN, 0.0384545, "- N/A -   "
18.59, 657.448, 0.03111628, NaN, NaN, NaN, 0.04699994, "- N/A -   "
18.72, 663.7167, 0.0313606, NaN, NaN, NaN, 0.0347922, "- N/A -   "
18.85, 669.0393, 0.0315744, NaN, NaN, NaN, 0.03601294, "- N/A -   "
18.98, 674.5985, 0.03179936, NaN, NaN, NaN, 0.0335714, "- N/A -   "
19.11, 679.803, 0.03200484, NaN, NaN, NaN, 0.0372337, "- N/A -   "
19.24, 685.2438, 0.0322159, NaN, NaN, NaN, 0.0396753, "- N/A -   "
19.37, 690.921, 0.0324436, NaN, NaN, NaN, 0.0347922, "- N/A -   "
19.5, 696.3622, 0.0326602, NaN, NaN, NaN, 0.0347922, "- N/A -   "
19.63, 701.8031, 0.0328823, NaN, NaN, NaN, 0.0323506, "- N/A -   "
19.76, 707.3623, 0.03309888, NaN, NaN, NaN, 0.0323506, "- N/A -   "
19.89, 712.3301, 0.0332988, NaN, NaN, NaN, 0.0396753, "- N/A -   "
20.02, 717.6527, 0.0335098, NaN, NaN, NaN, 0.04211683, "- N/A -   "
20.15, 723.685, 0.0337459, NaN, NaN, NaN, 0.0335714, "- N/A -   "
20.28, 729.126, 0.0339597, NaN, NaN, NaN, 0.0347922, "- N/A -   "
20.41, 734.803, 0.0341874, NaN, NaN, NaN, 0.0299091, "- N/A -   "
20.54, 739.416, 0.0343762, NaN, NaN, NaN, 0.04211683, "- N/A -   "
20.67, 744.976, 0.0345928, NaN, NaN, NaN, 0.04211683, "- N/A -   "
20.8, 751.008, 0.0348316, NaN, NaN, NaN, 0.0335714, "- N/A -   "
20.93, 757.0402, 0.035062, NaN, NaN, NaN, 0.0274675, "- N/A -   "
21.06, 762.1263, 0.0352703, NaN, NaN, NaN, 0.03112983, "- N/A -   "
21.19, 766.739, 0.0354536, NaN, NaN, NaN, 0.0445584, "- N/A -   "
21.32, 772.417, 0.03567571, NaN, NaN, NaN, 0.0433376, "- N/A -   "
21.45, 778.4491, 0.0359062, NaN, NaN, NaN, 0.03601294, "- N/A -   "
21.58, 784.481, 0.0361422, NaN, NaN, NaN, 0.0274675, "- N/A -   "
21.71, 789.4492, 0.03633935, NaN, NaN, NaN, 0.0384545, "- N/A -   "
21.84, 795.0084, 0.03655316, NaN, NaN, NaN, 0.0384545, "- N/A -   "
21.97, 799.9762, 0.03675031, NaN, NaN, NaN, 0.04699994, "- N/A -   "
22.1, 806.4816, 0.0369947, NaN, NaN, NaN, 0.0347922, "- N/A -   "
22.23, 812.041, 0.03721958, NaN, NaN, NaN, 0.0323506, "- N/A -   "
22.36, 817.4818, 0.03743339, NaN, NaN, NaN, 0.0323506, "- N/A -   "
22.49, 822.686, 0.03763887, NaN, NaN, NaN, 0.0372337, "- N/A -   "
22.62, 828.0088, 0.0378444, NaN, NaN, NaN, 0.04211683, "- N/A -   "
22.75, 833.805, 0.0380693, NaN, NaN, NaN, 0.0396753, "- N/A -   "
22.88, 839.482, 0.0382859, NaN, NaN, NaN, 0.0384545, "- N/A -   "
23.01, 845.396, 0.0385163, NaN, NaN, NaN, 0.0323506, "- N/A -   "
23.14, 850.6004, 0.0387246, NaN, NaN, NaN, 0.03601294, "- N/A -   "
23.27, 855.923, 0.0389356, NaN, NaN, NaN, 0.0384545, "- N/A -   "
23.4, 861.246, 0.0391411, NaN, NaN, NaN, 0.0445584, "- N/A -   "
23.53, 867.5146, 0.0393799, NaN, NaN, NaN, 0.0335714, "- N/A -   "
23.66, 873.0738, 0.03959926, NaN, NaN, NaN, 0.0323506, "- N/A -   "
23.79, 879.1061, 0.0398297, NaN, NaN, NaN, 0.0262467, "- N/A -   "
23.92, 883.601, 0.040013, NaN, NaN, NaN, 0.04089605, "- N/A -   "
24.05, 888.6868, 0.0402157, NaN, NaN, NaN, 0.0482207, "- N/A -   "
24.18, 895.074, 0.0404573, NaN, NaN, NaN, 0.03601294, "- N/A -   "
24.31, 900.751, 0.0406822, NaN, NaN, NaN, 0.0323506, "- N/A -   "
24.44, 906.547, 0.04090711, NaN, NaN, NaN, 0.0299091, "- N/A -   "
24.57, 911.2785, 0.0410987, NaN, NaN, NaN, 0.04089605, "- N/A -   "
24.7, 916.7194, 0.0413125, NaN, NaN, NaN, 0.04089605, "- N/A -   "
24.83, 922.6334, 0.04154021, NaN, NaN, NaN, 0.03601294, "- N/A -   "
24.96, 928.5475, 0.0417707, NaN, NaN, NaN, 0.0299091, "- N/A -   "
25.09, 933.8701, 0.0419789, NaN, NaN, NaN, 0.0335714, "- N/A -   "
25.22, 939.311, 0.04219552, NaN, NaN, NaN, 0.0347922, "- N/A -   "
25.35, 944.2788, 0.0423899, NaN, NaN, NaN, 0.0433376, "- N/A -   "
25.48, 950.1929, 0.0426148, NaN, NaN, NaN, 0.0396753, "- N/A -   "
25.61, 956.3435, 0.0428536, NaN, NaN, NaN, 0.0299091, "- N/A -   "
25.74, 961.43, 0.0430563, NaN, NaN, NaN, 0.03601294, "- N/A -   "
25.87, 967.107, 0.0432785, NaN, NaN, NaN, 0.0335714, "- N/A -   "
26, 972.548, 0.0434895, NaN, NaN, NaN, 0.03601294, "- N/A -   "
26.13, 977.7523, 0.04369497, NaN, NaN, NaN, 0.04089605, "- N/A -   "
26.26, 983.43, 0.04391711, NaN, NaN, NaN, 0.0396753, "- N/A -   "
26.39, 989.462, 0.0441476, NaN, NaN, NaN, 0.0335714, "- N/A -   "
26.52, 995.1396, 0.04436972, NaN, NaN, NaN, 0.03112983, "- N/A -   "
26.65, 1000.23, 0.04457242, NaN, NaN, NaN, 0.0384545, "- N/A -   "
26.78, 1005.19, 0.04476957, NaN, NaN, NaN, 0.04699994, "- N/A -   "
26.91, 1011.46, 0.0450028, NaN, NaN, NaN, 0.0384545, "- N/A -   "
27.04, 1017.17, 0.04523051, NaN, NaN, NaN, 0.0347922, "- N/A -   "
27.17, 1023.14, 0.04545543, NaN, NaN, NaN, 0.0299091, "- N/A -   "
27.3, 1028.26, 0.04565813, NaN, NaN, NaN, 0.03601294, "- N/A -   "
27.43, 1033.15, 0.0458525, NaN, NaN, NaN, 0.04699994, "- N/A -   "
27.56, 1039.47, 0.0460885, NaN, NaN, NaN, 0.0372337, "- N/A -   "
27.69, 1045.32, 0.046319, NaN, NaN, NaN, 0.0323506, "- N/A -   "
27.82, 1051.16, 0.0465439, NaN, NaN, NaN, 0.0274675, "- N/A -   "
27.95, 1056.05, 0.04673829, NaN, NaN, NaN, 0.0372337, "- N/A -   "
28.08, 1061.18, 0.04694099, NaN, NaN, NaN, 0.0445584, "- N/A -   "
28.21, 1067.02, 0.0471631, NaN, NaN, NaN, 0.04211683, "- N/A -   "
28.34, 1073.46, 0.0474075, NaN, NaN, NaN, 0.0286883, "- N/A -   "
28.47, 1078.47, 0.0476074, NaN, NaN, NaN, 0.03601294, "- N/A -   "
28.6, 1084.19, 0.0478268, NaN, NaN, NaN, 0.0347922, "- N/A -   "
28.73, 1089.202, 0.0480267, NaN, NaN, NaN, 0.04211683, "- N/A -   "
28.86, 1095.05, 0.0482488, NaN, NaN, NaN, 0.0396753, "- N/A -   "
28.99, 1101.485, 0.0484932, NaN, NaN, NaN, 0.0286883, "- N/A -   "
29.12, 1106.37, 0.0486903, NaN, NaN, NaN, 0.03601294, "- N/A -   "
29.25, 1112.456, 0.0489153, NaN, NaN, NaN, 0.0323506, "- N/A -   "
29.38, 1117.23, 0.0491124, NaN, NaN, NaN, 0.04211683, "- N/A -   "
29.51, 1122.831, 0.049329, NaN, NaN, NaN, 0.04089605, "- N/A -   "
29.64, 1128.79, 0.0495539, NaN, NaN, NaN, 0.0372337, "- N/A -   "
29.77, 1134.637, 0.04978161, NaN, NaN, NaN, 0.0323506, "- N/A -   "
29.9, 1140, 0.0499899, NaN, NaN, NaN, 0.03601294, "- N/A -   "
30.03, 1145.73, 0.050212, NaN, NaN, NaN, 0.0335714, "- N/A -   "
30.16, 1150.74, 0.0504092, NaN, NaN, NaN, 0.04211683, "- N/A -   "
30.29, 1156.58, 0.0506368, NaN, NaN, NaN, 0.0384545, "- N/A -   "
30.42, 1162.66, 0.05086454, NaN, NaN, NaN, 0.0323506, "- N/A -   "
30.55, 1168.15, 0.0510867, NaN, NaN, NaN, 0.0299091, "- N/A -   "
30.68, 1173.63, 0.0512977, NaN, NaN, NaN, 0.0347922, "- N/A -   "
30.81, 1178.28, 0.0514838, NaN, NaN, NaN, 0.04699994, "- N/A -   "
30.94, 1184.13, 0.05171145, NaN, NaN, NaN, 0.0433376, "- N/A -   "
31.07, 1190.21, 0.0519447, NaN, NaN, NaN, 0.0347922, "- N/A -   "
31.2, 1196.05, 0.05217517, NaN, NaN, NaN, 0.0299091, "- N/A -   "
31.33, 1201.42, 0.0523806, NaN, NaN, NaN, 0.0335714, "- N/A -   "
31.46, 1205.95, 0.0525695, NaN, NaN, NaN, 0.04577916, "- N/A -   "
31.59, 1211.55, 0.0527916, NaN, NaN, NaN, 0.0433376, "- N/A -   "
31.688, 1216.21, 0.05296932, NaN, NaN, NaN, 0.0372337, "- N/A -   "