File: 2_Tensile_Data/Hamel_ForceTest_Bolt5_Test2.csv
Time, Load (lb), Position (in), AxialStrain (in), TransverseStrain (in), Auxiliary (), Control Out (V), Stress (psi)
0.0, 1.29742, 0.0, NaN, NaN, NaN, 0.09461027, "- N/A -   "
0.01, 1.76921, 3.054427E-5, NaN, NaN, NaN, 0.09461027, "- N/A -   "
0.02, 2.241, 6.6642e-05, NaN, NaN, NaN, 0.0872856, "- N/A -   "
0.03, 2.712792, 9.718631E-5, NaN, NaN, NaN, 0.08118171, "- N/A -   "
0.04, 3.06663, 0.000127731, NaN, NaN, NaN, 0.0750778, "- N/A -   "
0.05, 3.42048, 0.000152721, NaN, NaN, NaN, 0.0701947, "- N/A -   "
0.06, 3.774319, 0.000177712, NaN, NaN, NaN, 0.06653238, "- N/A -   "
0.07, 4.246109, 0.00020548, NaN, NaN, NaN, 0.06287005, "- N/A -   "
0.08, 4.482, 0.000227694, NaN, NaN, NaN, 0.0592077, "- N/A -   "
0.09, 4.717899, 0.000249908, NaN, NaN, NaN, 0.05676616, "- N/A -   "
0.1, 5.18969, 2.721217E-4, NaN, NaN, NaN, 0.0543246, "- N/A -   "
0.11, 5.425584, 0.000297112, NaN, NaN, NaN, 0.05188305, "- N/A -   "
0.12, 5.779426, 3.165497E-4, NaN, NaN, NaN, 0.0494415, "- N/A -   "
0.13, 6.01532, 0.000335987, NaN, NaN, NaN, 0.0482207, "- N/A -   "
0.14, 6.251216, 0.000355424, NaN, NaN, NaN, 0.0482207, "- N/A -   "
0.15, 6.369163, 3.69308E-4, NaN, NaN, NaN, 0.0482207, "- N/A -   "
0.16, 6.723006, 0.000388745, NaN, NaN, NaN, 0.0482207, "- N/A -   "
0.17, 6.84095, 0.000402629, NaN, NaN, NaN, 0.0482207, "- N/A -   "
0.18, 7.07685, 4.192895E-4, NaN, NaN, NaN, 0.0482207, "- N/A -   "
0.19, 7.312743, 0.00043595, NaN, NaN, NaN, 0.0494415, "- N/A -   "
0.2, 7.548638, 0.000449834, NaN, NaN, NaN, 0.0494415, "- N/A -   "
0.21, 7.666586, 4.664943E-4, NaN, NaN, NaN, 0.05066227, "- N/A -   "
0.22, 7.784533, 0.000480378, NaN, NaN, NaN, 0.05188305, "- N/A -   "
0.23, 8.020428, 4.942618E-4, NaN, NaN, NaN, 0.05188305, "- N/A -   "
0.24, 8.37427, 0.000510922, NaN, NaN, NaN, 0.05188305, "- N/A -   "
0.25, 8.610166, 0.00053036, NaN, NaN, NaN, 0.05066227, "- N/A -   "
0.26, 8.728113, 5.470201E-4, NaN, NaN, NaN, 0.05066227, "- N/A -   "
0.27, 9.081955, 5.664574E-4, NaN, NaN, NaN, 0.0494415, "- N/A -   "
0.28, 9.31785, 5.858946E-4, NaN, NaN, NaN, 0.0494415, "- N/A -   "
0.29, 9.553744, 0.000602555, NaN, NaN, NaN, 0.0482207, "- N/A -   "
0.3, 9.78964, 6.219924E-4, NaN, NaN, NaN, 0.0482207, "- N/A -   "
0.31, 10.1435, 0.000638653, NaN, NaN, NaN, 0.04699994, "- N/A -   "
0.32, 10.26143, 0.000655313, NaN, NaN, NaN, 0.0482207, "- N/A -   "
0.33, 10.4973, 6.719739E-4, NaN, NaN, NaN, 0.04699994, "- N/A -   "
0.34, 10.73322, 0.000688634, NaN, NaN, NaN, 0.04699994, "- N/A -   "
0.35, 10.9691, 0.000705295, NaN, NaN, NaN, 0.04699994, "- N/A -   "
0.36, 11.0871, 7.219555E-4, NaN, NaN, NaN, 0.04699994, "- N/A -   "
0.37, 11.4409, 7.413927E-4, NaN, NaN, NaN, 0.04577916, "- N/A -   "
0.38, 11.6768, 0.000758053, NaN, NaN, NaN, 0.04577916, "- N/A -   "
0.39, 11.9127, 7.774905E-4, NaN, NaN, NaN, 0.0445584, "- N/A -   "
0.4, 12.0306, 0.000794151, NaN, NaN, NaN, 0.0445584, "- N/A -   "
0.41, 12.3845, 8.108115E-4, NaN, NaN, NaN, 0.0445584, "- N/A -   "
0.42, 12.6204, 8.27472E-4, NaN, NaN, NaN, 0.0445584, "- N/A -   "
0.43, 12.7383, 8.469093E-4, NaN, NaN, NaN, 0.0433376, "- N/A -   "
0.44, 13.09217, 8.663466E-4, NaN, NaN, NaN, 0.0433376, "- N/A -   "
0.45, 13.2101, 8.830071E-4, NaN, NaN, NaN, 0.04211683, "- N/A -   "
0.46, 13.6819, 9.052211E-4, NaN, NaN, NaN, 0.04089605, "- N/A -   "
0.47, 13.7999, 9.246584E-4, NaN, NaN, NaN, 0.0384545, "- N/A -   "
0.48, 14.1537, 0.000946872, NaN, NaN, NaN, 0.0372337, "- N/A -   "
0.49, 14.3896, 9.635329E-4, NaN, NaN, NaN, 0.03601294, "- N/A -   "
0.5, 14.6255, 9.857469E-4, NaN, NaN, NaN, 0.0335714, "- N/A -   "
0.51, 14.8614, 0.00100518, NaN, NaN, NaN, 0.0335714, "- N/A -   "
0.56, 16.0409, 0.00109404, NaN, NaN, NaN, 0.0299091, "- N/A -   "
0.61, 17.1024, 0.001174566, NaN, NaN, NaN, 0.03112983, "- N/A -   "
0.66, 18.046, 0.00125232, NaN, NaN, NaN, 0.0335714, "- N/A -   "
0.71, 19.3434, 0.00133284, NaN, NaN, NaN, 0.0347922, "- N/A -   "
0.76, 20.287, 0.00141059, NaN, NaN, NaN, 0.0384545, "- N/A -   "
0.81, 21.3485, 0.00149112, NaN, NaN, NaN, 0.0384545, "- N/A -   "
0.86, 22.41, 0.00157442, NaN, NaN, NaN, 0.0384545, "- N/A -   "
0.91, 23.3536, 0.00164661, NaN, NaN, NaN, 0.0433376, "- N/A -   "
0.96, 24.4151, 0.00172992, NaN, NaN, NaN, 0.0433376, "- N/A -   "
1.01, 25.4767, 0.00181322, NaN, NaN, NaN, 0.0445584, "- N/A -   "
1.06, 26.7741, 0.00191041, NaN, NaN, NaN, 0.0372337, "- N/A -   "
1.11, 27.95355, 0.00200481, NaN, NaN, NaN, 0.0335714, "- N/A -   "
1.16, 29.133, 0.002093671, NaN, NaN, NaN, 0.0299091, "- N/A -   "
1.21, 30.1946, 0.00217697, NaN, NaN, NaN, 0.03112983, "- N/A -   "
1.26, 31.1381, 0.002249169, NaN, NaN, NaN, 0.0347922, "- N/A -   "
1.31, 32.1997, 0.00232969, NaN, NaN, NaN, 0.03601294, "- N/A -   "
1.36, 33.3791, 0.00241577, NaN, NaN, NaN, 0.0347922, "- N/A -   "
1.41, 34.55861, 0.00250741, NaN, NaN, NaN, 0.0323506, "- N/A -   "
1.46, 35.50219, 0.002585156, NaN, NaN, NaN, 0.0335714, "- N/A -   "
1.51, 36.44577, 0.00266568, NaN, NaN, NaN, 0.0347922, "- N/A -   "
1.56, 37.15345, 0.0027351, NaN, NaN, NaN, 0.04211683, "- N/A -   "
1.61, 38.215, 0.0028073, NaN, NaN, NaN, 0.04577916, "- N/A -   "
1.66, 39.2765, 0.002898929, NaN, NaN, NaN, 0.0433376, "- N/A -   "
1.71, 40.456, 0.002985008, NaN, NaN, NaN, 0.04089605, "- N/A -   "
1.76, 41.6355, 0.00307942, NaN, NaN, NaN, 0.0372337, "- N/A -   "
1.81, 42.8149, 0.00316272, NaN, NaN, NaN, 0.03601294, "- N/A -   "
1.86, 43.87646, 0.0032488, NaN, NaN, NaN, 0.0347922, "- N/A -   "
1.91, 44.93799, 0.00333488, NaN, NaN, NaN, 0.0335714, "- N/A -   "
1.96, 45.9995, 0.00342096, NaN, NaN, NaN, 0.0323506, "- N/A -   "
2.01, 47.061, 0.00350148, NaN, NaN, NaN, 0.0335714, "- N/A -   "
2.06, 48.12257, 0.00358201, NaN, NaN, NaN, 0.0347922, "- N/A -   "
2.11, 49.30204, 0.00366809, NaN, NaN, NaN, 0.0335714, "- N/A -   "
2.16, 50.3636, 0.00375139, NaN, NaN, NaN, 0.0347922, "- N/A -   "
2.21, 51.4251, 0.00383747, NaN, NaN, NaN, 0.0323506, "- N/A -   "
2.26, 52.25073, 0.00390967, NaN, NaN, NaN, 0.0384545, "- N/A -   "
2.31, 53.3123, 0.00398742, NaN, NaN, NaN, 0.0396753, "- N/A -   "
2.36, 54.4917, 0.00406794, NaN, NaN, NaN, 0.04089605, "- N/A -   "
2.41, 55.55326, 0.00414847, NaN, NaN, NaN, 0.04211683, "- N/A -   "
2.46, 56.73273, 0.004234547, NaN, NaN, NaN, 0.04211683, "- N/A -   "
2.51, 58.0302, 0.004328956, NaN, NaN, NaN, 0.0372337, "- N/A -   "
2.56, 59.3276, 0.004423366, NaN, NaN, NaN, 0.03112983, "- N/A -   "
2.61, 60.3891, 0.004503892, NaN, NaN, NaN, 0.0323506, "- N/A -   "
2.66, 61.3327, 0.004584417, NaN, NaN, NaN, 0.0335714, "- N/A -   "
2.71, 62.5122, 0.004670497, NaN, NaN, NaN, 0.0323506, "- N/A -   "
2.76, 63.6916, 0.00476213, NaN, NaN, NaN, 0.0286883, "- N/A -   "
2.81, 64.87111, 0.00484266, NaN, NaN, NaN, 0.0299091, "- N/A -   "
2.86, 65.81469, 0.0049204, NaN, NaN, NaN, 0.0335714, "- N/A -   "
2.91, 66.87622, 0.00500093, NaN, NaN, NaN, 0.0335714, "- N/A -   "
2.96, 67.5839, 0.005067572, NaN, NaN, NaN, 0.04211683, "- N/A -   "
3.01, 68.6454, 0.00513977, NaN, NaN, NaN, 0.04577916, "- N/A -   "
3.06, 69.707, 0.00522029, NaN, NaN, NaN, 0.04699994, "- N/A -   "
3.11, 71.12233, 0.00531748, NaN, NaN, NaN, 0.04211683, "- N/A -   "
3.16, 72.41975, 0.00541189, NaN, NaN, NaN, 0.03601294, "- N/A -   "
3.21, 73.59922, 0.00549797, NaN, NaN, NaN, 0.0347922, "- N/A -   "
3.26, 74.66075, 0.005581271, NaN, NaN, NaN, 0.0347922, "- N/A -   "
3.31, 75.95817, 0.00567846, NaN, NaN, NaN, 0.0299091, "- N/A -   "
3.36, 77.25559, 0.00576176, NaN, NaN, NaN, 0.0286883, "- N/A -   "
3.41, 78.31712, 0.005847839, NaN, NaN, NaN, 0.0274675, "- N/A -   "
3.46, 79.37865, 0.005928365, NaN, NaN, NaN, 0.0286883, "- N/A -   "
3.51, 80.32223, 0.006003337, NaN, NaN, NaN, 0.0335714, "- N/A -   "
3.56, 81.5017, 0.006072756, NaN, NaN, NaN, 0.0396753, "- N/A -   "
3.61, 82.44528, 0.00614773, NaN, NaN, NaN, 0.0433376, "- N/A -   "
3.66, 83.50681, 0.00622548, NaN, NaN, NaN, 0.04699994, "- N/A -   "
3.71, 84.80424, 0.00630878, NaN, NaN, NaN, 0.04577916, "- N/A -   "
3.76, 86.1017, 0.00639486, NaN, NaN, NaN, 0.04577916, "- N/A -   "
3.81, 87.39908, 0.00648372, NaN, NaN, NaN, 0.04211683, "- N/A -   "
3.86, 88.8144, 0.006578125, NaN, NaN, NaN, 0.0372337, "- N/A -   "
3.91, 90.34776, 0.006678088, NaN, NaN, NaN, 0.0299091, "- N/A -   "
3.96, 91.76313, 0.006766944, NaN, NaN, NaN, 0.0286883, "- N/A -   "
4.01, 92.82466, 0.00684469, NaN, NaN, NaN, 0.03112983, "- N/A -   "
4.06, 94.0041, 0.00692244, NaN, NaN, NaN, 0.0323506, "- N/A -   "
4.11, 95.06567, 0.00700019, NaN, NaN, NaN, 0.0347922, "- N/A -   "
4.16, 96.481, 0.00708349, NaN, NaN, NaN, 0.0347922, "- N/A -   "
4.21, 97.6605, 0.00716402, NaN, NaN, NaN, 0.03601294, "- N/A -   "
4.26, 98.9579, 0.007250099, NaN, NaN, NaN, 0.03601294, "- N/A -   "
4.31, 100.019, 0.00732229, NaN, NaN, NaN, 0.0396753, "- N/A -   "
4.36, 101.199, 0.007397267, NaN, NaN, NaN, 0.0433376, "- N/A -   "
4.41, 102.3784, 0.007472239, NaN, NaN, NaN, 0.04699994, "- N/A -   "
4.46, 103.912, 0.007563872, NaN, NaN, NaN, 0.0445584, "- N/A -   "
4.51, 105.563, 0.007663835, NaN, NaN, NaN, 0.03601294, "- N/A -   "
4.56, 107.0963, 0.007752691, NaN, NaN, NaN, 0.0335714, "- N/A -   "
4.61, 108.276, 0.00783877, NaN, NaN, NaN, 0.0323506, "- N/A -   "
4.66, 109.5732, 0.007919297, NaN, NaN, NaN, 0.0335714, "- N/A -   "
4.71, 110.871, 0.007997045, NaN, NaN, NaN, 0.03601294, "- N/A -   "
4.76, 112.404, 0.008085901, NaN, NaN, NaN, 0.0335714, "- N/A -   "
4.81, 113.819, 0.00817476, NaN, NaN, NaN, 0.0323506, "- N/A -   "
4.86, 115.117, 0.008252506, NaN, NaN, NaN, 0.0335714, "- N/A -   "
4.91, 116.414, 0.008327479, NaN, NaN, NaN, 0.0372337, "- N/A -   "
4.96, 117.476, 0.008402451, NaN, NaN, NaN, 0.04089605, "- N/A -   "
5.01, 119.009, 0.008480201, NaN, NaN, NaN, 0.0433376, "- N/A -   "
5.06, 120.424, 0.008569056, NaN, NaN, NaN, 0.04089605, "- N/A -   "
5.11, 121.84, 0.008652358, NaN, NaN, NaN, 0.04211683, "- N/A -   "
5.16, 123.373, 0.008743991, NaN, NaN, NaN, 0.0384545, "- N/A -   "
5.21, 125.024, 0.008835625, NaN, NaN, NaN, 0.0335714, "- N/A -   "
5.26, 126.322, 0.008913374, NaN, NaN, NaN, 0.03601294, "- N/A -   "
5.31, 127.619, 0.008996676, NaN, NaN, NaN, 0.03601294, "- N/A -   "
5.36, 129.27, 0.009082755, NaN, NaN, NaN, 0.0347922, "- N/A -   "
5.41, 130.6858, 0.009171611, NaN, NaN, NaN, 0.0323506, "- N/A -   "
5.46, 132.337, 0.009257691, NaN, NaN, NaN, 0.03112983, "- N/A -   "
5.51, 133.87, 0.00934377, NaN, NaN, NaN, 0.0299091, "- N/A -   "
5.56, 135.05, 0.009421519, NaN, NaN, NaN, 0.0335714, "- N/A -   "
5.61, 136.465, 0.009502045, NaN, NaN, NaN, 0.0335714, "- N/A -   "
5.66, 137.999, 0.00957979, NaN, NaN, NaN, 0.03601294, "- N/A -   "
5.71, 139.296, 0.009657542, NaN, NaN, NaN, 0.0384545, "- N/A -   "
5.76, 140.475, 0.009729738, NaN, NaN, NaN, 0.0433376, "- N/A -   "
5.81, 141.891, 0.009804711, NaN, NaN, NaN, 0.04699994, "- N/A -   "
5.86, 143.542, 0.009893566, NaN, NaN, NaN, 0.04577916, "- N/A -   "
5.91, 145.311, 0.009987976, NaN, NaN, NaN, 0.0396753, "- N/A -   "
5.96, 147.0805, 0.0100796, NaN, NaN, NaN, 0.03601294, "- N/A -   "
6.01, 148.8497, 0.0101712, NaN, NaN, NaN, 0.0323506, "- N/A -   "
6.06, 150.265, 0.0102573, NaN, NaN, NaN, 0.0323506, "- N/A -   "
6.11, 151.916, 0.0103434, NaN, NaN, NaN, 0.0299091, "- N/A -   "
6.16, 153.568, 0.0104323, NaN, NaN, NaN, 0.0286883, "- N/A -   "
6.21, 155.101, 0.0105156, NaN, NaN, NaN, 0.0274675, "- N/A -   "
6.26, 156.398, 0.0105905, NaN, NaN, NaN, 0.03112983, "- N/A -   "
6.31, 157.696, 0.0106655, NaN, NaN, NaN, 0.0347922, "- N/A -   "
6.36, 158.9932, 0.0107321, NaN, NaN, NaN, 0.0433376, "- N/A -   "
6.41, 160.2906, 0.0108071, NaN, NaN, NaN, 0.04577916, "- N/A -   "
6.46, 161.824, 0.0108876, NaN, NaN, NaN, 0.0482207, "- N/A -   "
6.51, 163.593, 0.0109765, NaN, NaN, NaN, 0.04577916, "- N/A -   "
6.56, 165.598, 0.0110737, NaN, NaN, NaN, 0.0384545, "- N/A -   "
6.61, 167.367, 0.0111625, NaN, NaN, NaN, 0.03601294, "- N/A -   "
6.66, 168.783, 0.0112486, NaN, NaN, NaN, 0.03601294, "- N/A -   "
6.71, 170.552, 0.0113403, NaN, NaN, NaN, 0.0323506, "- N/A -   "
6.76, 172.4392, 0.0114319, NaN, NaN, NaN, 0.0274675, "- N/A -   "
6.81, 173.855, 0.0115124, NaN, NaN, NaN, 0.0286883, "- N/A -   "
6.86, 175.624, 0.0115985, NaN, NaN, NaN, 0.0286883, "- N/A -   "
6.91, 176.9212, 0.0116707, NaN, NaN, NaN, 0.0323506, "- N/A -   "
6.96, 178.337, 0.0117484, NaN, NaN, NaN, 0.03601294, "- N/A -   "
6.99, 179.28, 0.0117901, NaN, NaN, NaN, 0.0384545, "- N/A -   "
7, 179.516, 0.011804, NaN, NaN, NaN, 0.0396753, "- N/A -   "
7.01, 179.752, 0.0118151, NaN, NaN, NaN, 0.04211683, "- N/A -   "
7.02, 179.988, 0.01183174, NaN, NaN, NaN, 0.04211683, "- N/A -   "
7.03, 180.224, 0.0118484, NaN, NaN, NaN, 0.0433376, "- N/A -   "
7.04, 180.578, 0.0118623, NaN, NaN, NaN, 0.0433376, "- N/A -   "
7.05, 180.931, 0.0118789, NaN, NaN, NaN, 0.0433376, "- N/A -   "
7.06, 181.285, 0.0118956, NaN, NaN, NaN, 0.0433376, "- N/A -   "
7.07, 181.639, 0.0119123, NaN, NaN, NaN, 0.0433376, "- N/A -   "
7.08, 181.993, 0.0119317, NaN, NaN, NaN, 0.0433376, "- N/A -   "
7.09, 182.229, 0.0119484, NaN, NaN, NaN, 0.04211683, "- N/A -   "
7.1, 182.583, 0.011965, NaN, NaN, NaN, 0.04211683, "- N/A -   "
7.11, 182.937, 0.0119817, NaN, NaN, NaN, 0.04211683, "- N/A -   "
7.12, 183.29, 0.0119983, NaN, NaN, NaN, 0.0433376, "- N/A -   "
7.13, 183.526, 0.0120122, NaN, NaN, NaN, 0.0433376, "- N/A -   "
7.14, 183.8801, 0.01202889, NaN, NaN, NaN, 0.0445584, "- N/A -   "
7.15, 184.234, 0.0120455, NaN, NaN, NaN, 0.0445584, "- N/A -   "
7.16, 184.47, 0.0120594, NaN, NaN, NaN, 0.0445584, "- N/A -   "
7.17, 184.706, 0.01207887, NaN, NaN, NaN, 0.0445584, "- N/A -   "
7.18, 185.178, 0.0120955, NaN, NaN, NaN, 0.0433376, "- N/A -   "
7.19, 185.531, 0.0121122, NaN, NaN, NaN, 0.0433376, "- N/A -   "
7.2, 185.767, 0.0121289, NaN, NaN, NaN, 0.0433376, "- N/A -   "
7.21, 186.239, 0.0121455, NaN, NaN, NaN, 0.0433376, "- N/A -   "
7.22, 186.593, 0.0121649, NaN, NaN, NaN, 0.04211683, "- N/A -   "
7.23, 186.947, 0.0121844, NaN, NaN, NaN, 0.04211683, "- N/A -   "
7.24, 187.419, 0.012201, NaN, NaN, NaN, 0.04089605, "- N/A -   "
7.25, 187.654, 0.0122205, NaN, NaN, NaN, 0.0396753, "- N/A -   "
7.26, 188.008, 0.0122399, NaN, NaN, NaN, 0.0396753, "- N/A -   "
7.27, 188.48, 0.0122594, NaN, NaN, NaN, 0.0384545, "- N/A -   "
7.28, 188.952, 0.0122788, NaN, NaN, NaN, 0.03601294, "- N/A -   "
7.29, 189.3057, 0.01230101, NaN, NaN, NaN, 0.0347922, "- N/A -   "
7.3, 189.66, 0.0123232, NaN, NaN, NaN, 0.0323506, "- N/A -   "
7.31, 190.249, 0.0123399, NaN, NaN, NaN, 0.03112983, "- N/A -   "
7.32, 190.603, 0.0123621, NaN, NaN, NaN, 0.0299091, "- N/A -   "
7.33, 190.957, 0.01237876, NaN, NaN, NaN, 0.0286883, "- N/A -   "
7.34, 191.311, 0.01239542, NaN, NaN, NaN, 0.0286883, "- N/A -   "
7.35, 191.665, 0.0124121, NaN, NaN, NaN, 0.0286883, "- N/A -   "
7.36, 191.901, 0.0124287, NaN, NaN, NaN, 0.0286883, "- N/A -   "
7.37, 192.254, 0.0124454, NaN, NaN, NaN, 0.0286883, "- N/A -   "
7.38, 192.608, 0.0124621, NaN, NaN, NaN, 0.0299091, "- N/A -   "
7.39, 192.844, 0.0124787, NaN, NaN, NaN, 0.0299091, "- N/A -   "
7.4, 193.198, 0.0124926, NaN, NaN, NaN, 0.0299091, "- N/A -   "
7.41, 193.434, 0.012512, NaN, NaN, NaN, 0.0286883, "- N/A -   "
7.42, 193.906, 0.0125287, NaN, NaN, NaN, 0.0286883, "- N/A -   "
7.43, 194.259, 0.0125454, NaN, NaN, NaN, 0.0286883, "- N/A -   "
7.44, 194.613, 0.012562, NaN, NaN, NaN, 0.0286883, "- N/A -   "
7.45, 194.849, 0.0125787, NaN, NaN, NaN, 0.0286883, "- N/A -   "
7.46, 195.203, 0.0125953, NaN, NaN, NaN, 0.0299091, "- N/A -   "
7.47, 195.439, 0.01260923, NaN, NaN, NaN, 0.0299091, "- N/A -   "
7.48, 195.7928, 0.0126259, NaN, NaN, NaN, 0.0299091, "- N/A -   "
7.49, 196.147, 0.01264255, NaN, NaN, NaN, 0.03112983, "- N/A -   "
7.5, 196.5, 0.0126564, NaN, NaN, NaN, 0.03112983, "- N/A -   "
7.51, 196.736, 0.0126731, NaN, NaN, NaN, 0.03112983, "- N/A -   "
7.52, 197.09, 0.012687, NaN, NaN, NaN, 0.0323506, "- N/A -   "
7.53, 197.208, 0.0127009, NaN, NaN, NaN, 0.0335714, "- N/A -   "
7.54, 197.562, 0.0127175, NaN, NaN, NaN, 0.0335714, "- N/A -   "
7.55, 197.916, 0.0127342, NaN, NaN, NaN, 0.0347922, "- N/A -   "
7.56, 198.27, 0.0127481, NaN, NaN, NaN, 0.0347922, "- N/A -   "
7.57, 198.506, 0.012762, NaN, NaN, NaN, 0.03601294, "- N/A -   "
7.58, 198.859, 0.0127786, NaN, NaN, NaN, 0.03601294, "- N/A -   "
7.59, 199.213, 0.0127953, NaN, NaN, NaN, 0.03601294, "- N/A -   "
7.6, 199.567, 0.0128119, NaN, NaN, NaN, 0.03601294, "- N/A -   "
7.61, 199.921, 0.01283137, NaN, NaN, NaN, 0.03601294, "- N/A -   "
7.62, 200.275, 0.012848, NaN, NaN, NaN, 0.0347922, "- N/A -   "
7.63, 200.629, 0.01286469, NaN, NaN, NaN, 0.0347922, "- N/A -   "
7.64, 200.9825, 0.0128814, NaN, NaN, NaN, 0.03601294, "- N/A -   "
7.65, 201.336, 0.012898, NaN, NaN, NaN, 0.03601294, "- N/A -   "
7.66, 201.69, 0.0129147, NaN, NaN, NaN, 0.03601294, "- N/A -   "
7.67, 201.926, 0.0129286, NaN, NaN, NaN, 0.03601294, "- N/A -   "
7.68, 202.28, 0.0129452, NaN, NaN, NaN, 0.03601294, "- N/A -   "
7.69, 202.516, 0.0129591, NaN, NaN, NaN, 0.0372337, "- N/A -   "
7.7, 202.7517, 0.012973, NaN, NaN, NaN, 0.0384545, "- N/A -   "
7.71, 202.9876, 0.0129896, NaN, NaN, NaN, 0.0396753, "- N/A -   "
7.72, 203.341, 0.0130035, NaN, NaN, NaN, 0.04089605, "- N/A -   "
7.73, 203.577, 0.0130174, NaN, NaN, NaN, 0.04211683, "- N/A -   "
7.74, 203.813, 0.0130313, NaN, NaN, NaN, 0.04211683, "- N/A -   "
7.75, 204.167, 0.0130452, NaN, NaN, NaN, 0.0433376, "- N/A -   "
7.76, 204.521, 0.0130591, NaN, NaN, NaN, 0.0445584, "- N/A -   "
[...]
12.19, 364.214, 0.0204674, NaN, NaN, NaN, 0.0347922, "- N/A -   "
12.31, 368.81, 0.02067014, NaN, NaN, NaN, 0.0323506, "- N/A -   "
12.43, 373.287, 0.02086729, NaN, NaN, NaN, 0.0335714, "- N/A -   "
12.55, 377.6465, 0.02105611, NaN, NaN, NaN, 0.0384545, "- N/A -   "
12.67, 382.124, 0.0212477, NaN, NaN, NaN, 0.0433376, "- N/A -   "
12.79, 387.19, 0.0214671, NaN, NaN, NaN, 0.03601294, "- N/A -   "
12.91, 391.786, 0.021667, NaN, NaN, NaN, 0.0347922, "- N/A -   "
13.03, 396.617, 0.021878, NaN, NaN, NaN, 0.0299091, "- N/A -   "
13.15, 400.74, 0.0220613, NaN, NaN, NaN, 0.0372337, "- N/A -   "
13.27, 404.747, 0.0222335, NaN, NaN, NaN, 0.0494415, "- N/A -   "
13.39, 410.167, 0.0224584, NaN, NaN, NaN, 0.0396753, "- N/A -   "
13.51, 415.233, 0.02267218, NaN, NaN, NaN, 0.0323506, "- N/A -   "
13.63, 420.0639, 0.02287766, NaN, NaN, NaN, 0.0299091, "- N/A -   "
13.75, 424.541, 0.023072, NaN, NaN, NaN, 0.0323506, "- N/A -   "
13.87, 428.43, 0.0232442, NaN, NaN, NaN, 0.04577916, "- N/A -   "
13.99, 433.26, 0.0234441, NaN, NaN, NaN, 0.0445584, "- N/A -   "
14.11, 438.563, 0.0236607, NaN, NaN, NaN, 0.0372337, "- N/A -   "
14.23, 443.629, 0.0238801, NaN, NaN, NaN, 0.0286883, "- N/A -   "
14.35, 448.1065, 0.0240606, NaN, NaN, NaN, 0.0372337, "- N/A -   "
14.47, 452.82, 0.0242605, NaN, NaN, NaN, 0.0372337, "- N/A -   "
14.59, 457.1791, 0.0244465, NaN, NaN, NaN, 0.0445584, "- N/A -   "
14.71, 462.3635, 0.0246548, NaN, NaN, NaN, 0.0396753, "- N/A -   "
14.83, 467.783, 0.0248797, NaN, NaN, NaN, 0.0299091, "- N/A -   "
14.95, 472.2609, 0.0250685, NaN, NaN, NaN, 0.0335714, "- N/A -   "
15.07, 477.445, 0.0252768, NaN, NaN, NaN, 0.03112983, "- N/A -   "
15.19, 481.687, 0.0254545, NaN, NaN, NaN, 0.0396753, "- N/A -   "
15.31, 486.4, 0.0256544, NaN, NaN, NaN, 0.04089605, "- N/A -   "
15.43, 491.467, 0.0258627, NaN, NaN, NaN, 0.03601294, "- N/A -   "
15.55, 496.2974, 0.0260598, NaN, NaN, NaN, 0.0372337, "- N/A -   "
15.67, 501.482, 0.0262736, NaN, NaN, NaN, 0.03112983, "- N/A -   "
15.79, 506.195, 0.026468, NaN, NaN, NaN, 0.0335714, "- N/A -   "
15.91, 510.9078, 0.0266624, NaN, NaN, NaN, 0.03601294, "- N/A -   "
16.03, 515.274, 0.0268456, NaN, NaN, NaN, 0.0433376, "- N/A -   "
16.15, 520.597, 0.0270594, NaN, NaN, NaN, 0.0384545, "- N/A -   "
16.27, 525.9195, 0.027276, NaN, NaN, NaN, 0.0299091, "- N/A -   "
16.39, 531.006, 0.0274815, NaN, NaN, NaN, 0.0274675, "- N/A -   "
16.51, 535.6185, 0.0276731, NaN, NaN, NaN, 0.03112983, "- N/A -   "
16.63, 539.6401, 0.02784527, NaN, NaN, NaN, 0.0445584, "- N/A -   "
16.75, 544.608, 0.0280452, NaN, NaN, NaN, 0.0445584, "- N/A -   "
16.87, 550.285, 0.0282673, NaN, NaN, NaN, 0.0347922, "- N/A -   "
16.99, 555.4897, 0.02847837, NaN, NaN, NaN, 0.0286883, "- N/A -   "
17.11, 560.221, 0.0286727, NaN, NaN, NaN, 0.0323506, "- N/A -   "
17.23, 564.479, 0.0288505, NaN, NaN, NaN, 0.04211683, "- N/A -   "
17.35, 569.329, 0.0290448, NaN, NaN, NaN, 0.0445584, "- N/A -   "
17.47, 574.5329, 0.0292531, NaN, NaN, NaN, 0.04089605, "- N/A -   "
17.59, 580.3287, 0.0294808, NaN, NaN, NaN, 0.0299091, "- N/A -   "
17.71, 585.2965, 0.0296807, NaN, NaN, NaN, 0.0286883, "- N/A -   "
17.83, 589.791, 0.029864, NaN, NaN, NaN, 0.03601294, "- N/A -   "
17.95, 594.5224, 0.0300556, NaN, NaN, NaN, 0.0396753, "- N/A -   "
18.07, 599.2536, 0.0302444, NaN, NaN, NaN, 0.04577916, "- N/A -   "
18.19, 605.0494, 0.0304693, NaN, NaN, NaN, 0.0335714, "- N/A -   "
18.31, 609.781, 0.0306637, NaN, NaN, NaN, 0.03601294, "- N/A -   "
18.43, 614.985, 0.0308664, NaN, NaN, NaN, 0.0347922, "- N/A -   "
18.55, 619.8345, 0.0310635, NaN, NaN, NaN, 0.03601294, "- N/A -   "
18.67, 624.684, 0.03125512, NaN, NaN, NaN, 0.0396753, "- N/A -   "
18.79, 629.6518, 0.031455, NaN, NaN, NaN, 0.0396753, "- N/A -   "
18.91, 634.738, 0.0316605, NaN, NaN, NaN, 0.0372337, "- N/A -   "
19.03, 640.179, 0.03187156, NaN, NaN, NaN, 0.0323506, "- N/A -   "
19.15, 645.2649, 0.03207704, NaN, NaN, NaN, 0.03112983, "- N/A -   "
19.27, 649.9961, 0.03227141, NaN, NaN, NaN, 0.0335714, "- N/A -   "
19.39, 654.6091, 0.0324519, NaN, NaN, NaN, 0.04089605, "- N/A -   "
19.51, 659.6951, 0.0326463, NaN, NaN, NaN, 0.0445584, "- N/A -   "
19.63, 665.373, 0.0328684, NaN, NaN, NaN, 0.0335714, "- N/A -   "
19.75, 670.2221, 0.0330628, NaN, NaN, NaN, 0.03601294, "- N/A -   "
19.87, 675.545, 0.03327382, NaN, NaN, NaN, 0.03112983, "- N/A -   "
19.99, 680.0394, 0.03345708, NaN, NaN, NaN, 0.0384545, "- N/A -   "
20.11, 684.7707, 0.0336431, NaN, NaN, NaN, 0.04577916, "- N/A -   "
20.23, 690.4482, 0.0338597, NaN, NaN, NaN, 0.0384545, "- N/A -   "
20.35, 695.7708, 0.0340735, NaN, NaN, NaN, 0.0323506, "- N/A -   "
20.47, 701.093, 0.03428178, NaN, NaN, NaN, 0.0274675, "- N/A -   "
20.59, 705.7064, 0.034465, NaN, NaN, NaN, 0.0347922, "- N/A -   "
20.71, 710.083, 0.0346428, NaN, NaN, NaN, 0.0445584, "- N/A -   "
20.83, 715.4054, 0.03484546, NaN, NaN, NaN, 0.0433376, "- N/A -   "
20.95, 721.319, 0.0350732, NaN, NaN, NaN, 0.0323506, "- N/A -   "
21.07, 726.169, 0.03527308, NaN, NaN, NaN, 0.03112983, "- N/A -   "
21.19, 731.255, 0.0354647, NaN, NaN, NaN, 0.0347922, "- N/A -   "
21.31, 736.2228, 0.0356563, NaN, NaN, NaN, 0.0384545, "- N/A -   "
21.43, 740.836, 0.03584509, NaN, NaN, NaN, 0.0445584, "- N/A -   "
21.55, 746.632, 0.0360645, NaN, NaN, NaN, 0.03601294, "- N/A -   "
21.67, 752.1908, 0.03628104, NaN, NaN, NaN, 0.0286883, "- N/A -   "
21.79, 756.6854, 0.0364643, NaN, NaN, NaN, 0.03601294, "- N/A -   "
21.91, 762.1263, 0.0366726, NaN, NaN, NaN, 0.0335714, "- N/A -   "
22.03, 766.621, 0.0368531, NaN, NaN, NaN, 0.04089605, "- N/A -   "
22.15, 771.7071, 0.037053, NaN, NaN, NaN, 0.04211683, "- N/A -   "
22.27, 777.148, 0.0372585, NaN, NaN, NaN, 0.0384545, "- N/A -   "
22.39, 782.471, 0.0374667, NaN, NaN, NaN, 0.0347922, "- N/A -   "
22.51, 787.5567, 0.03766664, NaN, NaN, NaN, 0.0347922, "- N/A -   "
22.63, 792.525, 0.0378666, NaN, NaN, NaN, 0.0347922, "- N/A -   "
22.75, 797.374, 0.03805816, NaN, NaN, NaN, 0.0384545, "- N/A -   "
22.87, 802.1053, 0.03824698, NaN, NaN, NaN, 0.0433376, "- N/A -   "
22.99, 807.7828, 0.0384663, NaN, NaN, NaN, 0.0347922, "- N/A -   "
23.11, 813.224, 0.03867738, NaN, NaN, NaN, 0.03112983, "- N/A -   "
23.23, 818.31, 0.0388801, NaN, NaN, NaN, 0.0286883, "- N/A -   "
23.35, 823.041, 0.0390689, NaN, NaN, NaN, 0.0335714, "- N/A -   "
23.47, 827.2991, 0.0392411, NaN, NaN, NaN, 0.04577916, "- N/A -   "
23.59, 832.6217, 0.0394493, NaN, NaN, NaN, 0.0433376, "- N/A -   "
23.71, 838.299, 0.0396687, NaN, NaN, NaN, 0.0335714, "- N/A -   "
23.83, 843.5036, 0.0398769, NaN, NaN, NaN, 0.0299091, "- N/A -   "
23.95, 848.4713, 0.0400741, NaN, NaN, NaN, 0.03112983, "- N/A -   "
24.07, 852.611, 0.0402462, NaN, NaN, NaN, 0.0433376, "- N/A -   "
24.19, 857.816, 0.0404462, NaN, NaN, NaN, 0.0433376, "- N/A -   "
24.31, 863.2565, 0.04066, NaN, NaN, NaN, 0.0384545, "- N/A -   "
24.43, 868.9339, 0.0408821, NaN, NaN, NaN, 0.0274675, "- N/A -   "
24.55, 873.902, 0.041082, NaN, NaN, NaN, 0.0274675, "- N/A -   "
24.67, 878.5147, 0.04126531, NaN, NaN, NaN, 0.0347922, "- N/A -   "
24.79, 882.8911, 0.04144302, NaN, NaN, NaN, 0.0445584, "- N/A -   "
24.91, 887.504, 0.04162629, NaN, NaN, NaN, 0.05188305, "- N/A -   "
25.03, 894.246, 0.0418734, NaN, NaN, NaN, 0.03112983, "- N/A -   "
25.15, 899.0956, 0.0420706, NaN, NaN, NaN, 0.0335714, "- N/A -   "
25.27, 904.063, 0.0422705, NaN, NaN, NaN, 0.0323506, "- N/A -   "
25.39, 908.9129, 0.0424593, NaN, NaN, NaN, 0.0372337, "- N/A -   "
25.51, 913.7623, 0.04265091, NaN, NaN, NaN, 0.04089605, "- N/A -   "
25.63, 919.085, 0.0428592, NaN, NaN, NaN, 0.0372337, "- N/A -   "
25.75, 924.1711, 0.0430646, NaN, NaN, NaN, 0.0347922, "- N/A -   "
25.87, 929.612, 0.0432757, NaN, NaN, NaN, 0.0299091, "- N/A -   "
25.99, 934.4615, 0.0434728, NaN, NaN, NaN, 0.03112983, "- N/A -   "
26.11, 939.4293, 0.0436644, NaN, NaN, NaN, 0.0347922, "- N/A -   "
26.23, 943.8057, 0.04384769, NaN, NaN, NaN, 0.0445584, "- N/A -   "
26.35, 948.8918, 0.0440421, NaN, NaN, NaN, 0.04577916, "- N/A -   "
26.47, 954.8058, 0.0442698, NaN, NaN, NaN, 0.0335714, "- N/A -   "
26.59, 959.8919, 0.04446968, NaN, NaN, NaN, 0.0335714, "- N/A -   "
26.71, 965.215, 0.0446779, NaN, NaN, NaN, 0.0299091, "- N/A -   "
26.83, 969.3544, 0.0448501, NaN, NaN, NaN, 0.04211683, "- N/A -   "
26.95, 974.2039, 0.0450417, NaN, NaN, NaN, 0.04577916, "- N/A -   "
27.07, 980, 0.04526106, NaN, NaN, NaN, 0.0372337, "- N/A -   "
27.19, 985.441, 0.04547487, NaN, NaN, NaN, 0.0323506, "- N/A -   "
27.31, 990.8815, 0.0456803, NaN, NaN, NaN, 0.0286883, "- N/A -   "
27.43, 995.2579, 0.0458636, NaN, NaN, NaN, 0.03601294, "- N/A -   "
27.452, 996.0858, 0.0458969, NaN, NaN, NaN, 0.0372337, "- N/A -   "