File: 2_Tensile_Data/Hamel_ForceTest_Bolt5_Test7.csv
Time, Load (lb), Position (in), AxialStrain (in), TransverseStrain (in), Auxiliary (), Control Out (V), Stress (psi)
0.0, 12.6204, 0.0, NaN, NaN, NaN, -0.006714277, "- N/A -   "
0.01, 12.7383, 2.776752E-6, NaN, NaN, NaN, -6.103888E-4, "- N/A -   "
0.02, 12.7383, 2.776752E-6, NaN, NaN, NaN, 0.006714277, "- N/A -   "
0.03, 12.7383, 5.553504E-6, NaN, NaN, NaN, 0.01525972, "- N/A -   "
0.04, 12.7383, 5.553504E-6, NaN, NaN, NaN, 0.0347922, "- N/A -   "
0.05, 12.8563, 1.38838e-05, NaN, NaN, NaN, 0.05066227, "- N/A -   "
0.06, 13.09217, 2.49908e-05, NaN, NaN, NaN, 0.0653116, "- N/A -   "
0.07, 13.446, 4.16513e-05, NaN, NaN, NaN, 0.07751938, "- N/A -   "
0.08, 13.7999, 6.386529E-5, NaN, NaN, NaN, 0.0872856, "- N/A -   "
0.09, 14.2716, 8.885606E-5, NaN, NaN, NaN, 0.095831, "- N/A -   "
0.1, 14.8614, 0.0001194, NaN, NaN, NaN, 0.103156, "- N/A -   "
0.11, 15.4511, 1.499446E-4, NaN, NaN, NaN, 0.100714, "- N/A -   "
0.12, 16.0409, 0.000180489, NaN, NaN, NaN, 0.09461027, "- N/A -   "
0.13, 16.6306, 0.00020548, NaN, NaN, NaN, 0.0897272, "- N/A -   "
0.14, 16.9844, 0.000233247, NaN, NaN, NaN, 0.08606482, "- N/A -   "
0.15, 17.5742, 2.582379E-4, NaN, NaN, NaN, 0.08240249, "- N/A -   "
0.16, 18.046, 0.000280452, NaN, NaN, NaN, 0.07874016, "- N/A -   "
0.17, 18.3998, 0.000302666, NaN, NaN, NaN, 0.0762986, "- N/A -   "
0.18, 18.8716, 0.00032488, NaN, NaN, NaN, 0.07385705, "- N/A -   "
0.19, 19.2254, 0.000349871, NaN, NaN, NaN, 0.0701947, "- N/A -   "
0.2, 19.8152, 0.000372085, NaN, NaN, NaN, 0.0689739, "- N/A -   "
0.21, 20.169, 0.000391522, NaN, NaN, NaN, 0.06653238, "- N/A -   "
0.22, 20.52286, 0.000410959, NaN, NaN, NaN, 0.0653116, "- N/A -   "
0.23, 20.7588, 4.276198E-4, NaN, NaN, NaN, 0.0653116, "- N/A -   "
0.24, 21.2305, 0.000449834, NaN, NaN, NaN, 0.0640908, "- N/A -   "
0.25, 21.5844, 0.000469271, NaN, NaN, NaN, 0.06287005, "- N/A -   "
0.26, 22.0562, 4.887083E-4, NaN, NaN, NaN, 0.0604285, "- N/A -   "
0.27, 22.41, 5.081456E-4, NaN, NaN, NaN, 0.0592077, "- N/A -   "
0.28, 22.6459, 0.00053036, NaN, NaN, NaN, 0.05676616, "- N/A -   "
0.29, 23.1177, 0.000549797, NaN, NaN, NaN, 0.0555454, "- N/A -   "
0.3, 23.4715, 0.000569234, NaN, NaN, NaN, 0.0543246, "- N/A -   "
0.31, 23.9433, 0.000591448, NaN, NaN, NaN, 0.05188305, "- N/A -   "
0.32, 24.1792, 6.136621E-4, NaN, NaN, NaN, 0.0494415, "- N/A -   "
0.33, 24.65102, 0.000635876, NaN, NaN, NaN, 0.04699994, "- N/A -   "
0.34, 25.1228, 0.00065809, NaN, NaN, NaN, 0.0445584, "- N/A -   "
0.35, 25.4767, 0.000677527, NaN, NaN, NaN, 0.0433376, "- N/A -   "
0.36, 25.8305, 6.969647E-4, NaN, NaN, NaN, 0.04211683, "- N/A -   "
0.37, 26.18434, 0.000716402, NaN, NaN, NaN, 0.04089605, "- N/A -   "
0.38, 26.5382, 0.000735839, NaN, NaN, NaN, 0.0396753, "- N/A -   "
0.39, 26.892, 7.552765E-4, NaN, NaN, NaN, 0.0396753, "- N/A -   "
0.4, 27.1279, 7.71937E-4, NaN, NaN, NaN, 0.0384545, "- N/A -   "
0.41, 27.4818, 7.885975E-4, NaN, NaN, NaN, 0.0384545, "- N/A -   "
0.42, 27.7177, 0.000805258, NaN, NaN, NaN, 0.0384545, "- N/A -   "
0.43, 28.0715, 8.246953E-4, NaN, NaN, NaN, 0.0372337, "- N/A -   "
0.44, 28.42534, 8.413558E-4, NaN, NaN, NaN, 0.0372337, "- N/A -   "
0.45, 28.7792, 8.580163E-4, NaN, NaN, NaN, 0.0372337, "- N/A -   "
0.46, 29.0151, 8.746768E-4, NaN, NaN, NaN, 0.0372337, "- N/A -   "
0.47, 29.251, 8.941141E-4, NaN, NaN, NaN, 0.0372337, "- N/A -   "
0.48, 29.7228, 9.107746E-4, NaN, NaN, NaN, 0.03601294, "- N/A -   "
0.54, 31.72787, 0.00102184, NaN, NaN, NaN, 0.03112983, "- N/A -   "
0.6, 33.49708, 0.00112736, NaN, NaN, NaN, 0.0286883, "- N/A -   "
0.66, 35.1483, 0.00121622, NaN, NaN, NaN, 0.0335714, "- N/A -   "
0.72, 36.6817, 0.00130507, NaN, NaN, NaN, 0.0384545, "- N/A -   "
0.78, 38.215, 0.00139115, NaN, NaN, NaN, 0.04577916, "- N/A -   "
0.84, 39.8662, 0.00148279, NaN, NaN, NaN, 0.0482207, "- N/A -   "
0.9, 41.7534, 0.0015883, NaN, NaN, NaN, 0.04577916, "- N/A -   "
0.96, 43.9944, 0.0017077, NaN, NaN, NaN, 0.0372337, "- N/A -   "
1.02, 45.8816, 0.001816, NaN, NaN, NaN, 0.0335714, "- N/A -   "
1.08, 47.5328, 0.00192151, NaN, NaN, NaN, 0.03112983, "- N/A -   "
1.14, 49.41999, 0.002024252, NaN, NaN, NaN, 0.0299091, "- N/A -   "
1.2, 51.0713, 0.00212422, NaN, NaN, NaN, 0.0299091, "- N/A -   "
1.26, 52.84047, 0.002226955, NaN, NaN, NaN, 0.0286883, "- N/A -   "
1.32, 54.3738, 0.00231303, NaN, NaN, NaN, 0.0347922, "- N/A -   "
1.38, 55.7892, 0.00239634, NaN, NaN, NaN, 0.04211683, "- N/A -   "
1.44, 57.20452, 0.00248797, NaN, NaN, NaN, 0.04577916, "- N/A -   "
1.5, 59.2096, 0.00259071, NaN, NaN, NaN, 0.0445584, "- N/A -   "
1.56, 60.8609, 0.00269067, NaN, NaN, NaN, 0.0445584, "- N/A -   "
1.62, 62.866, 0.002798966, NaN, NaN, NaN, 0.04211683, "- N/A -   "
1.68, 64.87111, 0.00291281, NaN, NaN, NaN, 0.0347922, "- N/A -   "
1.74, 66.99416, 0.00302388, NaN, NaN, NaN, 0.0299091, "- N/A -   "
1.8, 68.7634, 0.003123846, NaN, NaN, NaN, 0.0299091, "- N/A -   "
1.86, 70.17874, 0.00321548, NaN, NaN, NaN, 0.0335714, "- N/A -   "
1.92, 72.06591, 0.003309888, NaN, NaN, NaN, 0.03601294, "- N/A -   "
1.98, 73.9531, 0.003409851, NaN, NaN, NaN, 0.03601294, "- N/A -   "
2.04, 75.7223, 0.00350981, NaN, NaN, NaN, 0.03601294, "- N/A -   "
2.1, 77.25559, 0.00360145, NaN, NaN, NaN, 0.04089605, "- N/A -   "
2.16, 79.14275, 0.00369308, NaN, NaN, NaN, 0.0433376, "- N/A -   "
2.22, 80.794, 0.00378749, NaN, NaN, NaN, 0.04577916, "- N/A -   "
2.28, 83.03502, 0.00390134, NaN, NaN, NaN, 0.0396753, "- N/A -   "
2.34, 85.276, 0.00402074, NaN, NaN, NaN, 0.0323506, "- N/A -   "
2.4, 87.16318, 0.00412903, NaN, NaN, NaN, 0.0286883, "- N/A -   "
2.46, 88.8144, 0.00422066, NaN, NaN, NaN, 0.03112983, "- N/A -   "
2.52, 90.4657, 0.004312296, NaN, NaN, NaN, 0.0347922, "- N/A -   "
2.58, 92.35287, 0.004412259, NaN, NaN, NaN, 0.0347922, "- N/A -   "
2.64, 94.59387, 0.004523329, NaN, NaN, NaN, 0.0299091, "- N/A -   "
2.7, 96.12719, 0.00461774, NaN, NaN, NaN, 0.0335714, "- N/A -   "
2.76, 97.6605, 0.004698264, NaN, NaN, NaN, 0.04089605, "- N/A -   "
2.82, 99.3118, 0.00479545, NaN, NaN, NaN, 0.0433376, "- N/A -   "
2.88, 101.435, 0.00489819, NaN, NaN, NaN, 0.04089605, "- N/A -   "
2.94, 103.44, 0.005003707, NaN, NaN, NaN, 0.0384545, "- N/A -   "
3, 105.327, 0.00510645, NaN, NaN, NaN, 0.0372337, "- N/A -   "
3.06, 107.214, 0.00520919, NaN, NaN, NaN, 0.03601294, "- N/A -   "
3.12, 108.866, 0.00530637, NaN, NaN, NaN, 0.0372337, "- N/A -   "
3.18, 110.989, 0.00541744, NaN, NaN, NaN, 0.0323506, "- N/A -   "
3.24, 112.876, 0.00552018, NaN, NaN, NaN, 0.0323506, "- N/A -   "
3.3, 114.645, 0.00562015, NaN, NaN, NaN, 0.03112983, "- N/A -   "
3.36, 116.296, 0.00571456, NaN, NaN, NaN, 0.0335714, "- N/A -   "
3.42, 118.065, 0.005814519, NaN, NaN, NaN, 0.0335714, "- N/A -   "
3.48, 119.717, 0.00590337, NaN, NaN, NaN, 0.0384545, "- N/A -   "
3.54, 121.486, 0.005997784, NaN, NaN, NaN, 0.04089605, "- N/A -   "
3.6, 123.137, 0.006089417, NaN, NaN, NaN, 0.0445584, "- N/A -   "
3.66, 125.024, 0.006192157, NaN, NaN, NaN, 0.0445584, "- N/A -   "
3.72, 127.147, 0.006303227, NaN, NaN, NaN, 0.0396753, "- N/A -   "
3.78, 129.27, 0.00641707, NaN, NaN, NaN, 0.0335714, "- N/A -   "
3.84, 130.922, 0.00651704, NaN, NaN, NaN, 0.0347922, "- N/A -   "
3.9, 132.6909, 0.006617, NaN, NaN, NaN, 0.0347922, "- N/A -   "
3.96, 134.814, 0.00672252, NaN, NaN, NaN, 0.0323506, "- N/A -   "
4.02, 136.583, 0.006825256, NaN, NaN, NaN, 0.0299091, "- N/A -   "
4.08, 138.47, 0.00691967, NaN, NaN, NaN, 0.0323506, "- N/A -   "
4.14, 139.768, 0.00700297, NaN, NaN, NaN, 0.0396753, "- N/A -   "
4.2, 141.301, 0.00708905, NaN, NaN, NaN, 0.04577916, "- N/A -   "
4.26, 143.188, 0.00718623, NaN, NaN, NaN, 0.04699994, "- N/A -   "
4.32, 145.429, 0.0072973, NaN, NaN, NaN, 0.04211683, "- N/A -   "
4.38, 147.316, 0.00741115, NaN, NaN, NaN, 0.03601294, "- N/A -   "
4.44, 149.3215, 0.007511114, NaN, NaN, NaN, 0.03601294, "- N/A -   "
4.5, 151.209, 0.00761385, NaN, NaN, NaN, 0.0347922, "- N/A -   "
4.56, 153.332, 0.007724924, NaN, NaN, NaN, 0.03112983, "- N/A -   "
4.62, 155.101, 0.007824887, NaN, NaN, NaN, 0.0299091, "- N/A -   "
4.68, 157.224, 0.007930404, NaN, NaN, NaN, 0.0274675, "- N/A -   "
4.74, 158.639, 0.008016483, NaN, NaN, NaN, 0.0335714, "- N/A -   "
4.8, 160.173, 0.008099785, NaN, NaN, NaN, 0.04211683, "- N/A -   "
4.86, 161.942, 0.008188642, NaN, NaN, NaN, 0.04577916, "- N/A -   "
4.92, 163.829, 0.008294158, NaN, NaN, NaN, 0.0433376, "- N/A -   "
4.98, 165.598, 0.008391344, NaN, NaN, NaN, 0.0445584, "- N/A -   "
5.04, 167.603, 0.008499637, NaN, NaN, NaN, 0.04211683, "- N/A -   "
5.1, 169.844, 0.008616261, NaN, NaN, NaN, 0.0335714, "- N/A -   "
5.16, 171.9674, 0.008727332, NaN, NaN, NaN, 0.0286883, "- N/A -   "
5.22, 173.855, 0.008827294, NaN, NaN, NaN, 0.0286883, "- N/A -   "
5.28, 175.742, 0.00892448, NaN, NaN, NaN, 0.0299091, "- N/A -   "
5.34, 177.393, 0.009013337, NaN, NaN, NaN, 0.0347922, "- N/A -   "
5.4, 179.044, 0.009107746, NaN, NaN, NaN, 0.0372337, "- N/A -   "
5.46, 181.049, 0.009210486, NaN, NaN, NaN, 0.03601294, "- N/A -   "
5.52, 182.701, 0.009304896, NaN, NaN, NaN, 0.0396753, "- N/A -   "
5.58, 184.47, 0.009393752, NaN, NaN, NaN, 0.0433376, "- N/A -   "
5.64, 186.357, 0.009493715, NaN, NaN, NaN, 0.0433376, "- N/A -   "
5.7, 188.598, 0.009607561, NaN, NaN, NaN, 0.0372337, "- N/A -   "
5.76, 190.603, 0.009721409, NaN, NaN, NaN, 0.0323506, "- N/A -   "
5.82, 192.49, 0.009821372, NaN, NaN, NaN, 0.03112983, "- N/A -   "
5.88, 194.259, 0.009913004, NaN, NaN, NaN, 0.0347922, "- N/A -   "
5.94, 196.0287, 0.01001019, NaN, NaN, NaN, 0.03601294, "- N/A -   "
6, 198.034, 0.0101157, NaN, NaN, NaN, 0.0347922, "- N/A -   "
6.06, 200.039, 0.0102184, NaN, NaN, NaN, 0.0323506, "- N/A -   "
6.12, 201.808, 0.0103129, NaN, NaN, NaN, 0.0347922, "- N/A -   "
6.18, 203.459, 0.0103989, NaN, NaN, NaN, 0.04211683, "- N/A -   "
6.24, 205.347, 0.0104933, NaN, NaN, NaN, 0.0433376, "- N/A -   "
6.3, 207.4696, 0.0106016, NaN, NaN, NaN, 0.0396753, "- N/A -   "
6.36, 209.593, 0.0107072, NaN, NaN, NaN, 0.0372337, "- N/A -   "
6.42, 211.48, 0.0108099, NaN, NaN, NaN, 0.03601294, "- N/A -   "
6.48, 213.485, 0.0109126, NaN, NaN, NaN, 0.03601294, "- N/A -   "
6.54, 215.372, 0.0110126, NaN, NaN, NaN, 0.03601294, "- N/A -   "
6.6, 217.495, 0.0111153, NaN, NaN, NaN, 0.0335714, "- N/A -   "
6.66, 219.5, 0.0112209, NaN, NaN, NaN, 0.03112983, "- N/A -   "
6.72, 221.269, 0.0113153, NaN, NaN, NaN, 0.0335714, "- N/A -   "
6.78, 223.157, 0.01141245, NaN, NaN, NaN, 0.0347922, "- N/A -   "
6.84, 225.162, 0.0115124, NaN, NaN, NaN, 0.0347922, "- N/A -   "
6.9, 226.931, 0.0116068, NaN, NaN, NaN, 0.0372337, "- N/A -   "
6.96, 228.818, 0.0116985, NaN, NaN, NaN, 0.04089605, "- N/A -   "
7.02, 230.587, 0.0117929, NaN, NaN, NaN, 0.0433376, "- N/A -   "
7.08, 232.828, 0.0118956, NaN, NaN, NaN, 0.04211683, "- N/A -   "
7.14, 234.951, 0.0120122, NaN, NaN, NaN, 0.03601294, "- N/A -   "
7.2, 237.192, 0.0121177, NaN, NaN, NaN, 0.0323506, "- N/A -   "
7.26, 239.197, 0.0122149, NaN, NaN, NaN, 0.0335714, "- N/A -   "
7.32, 240.967, 0.0123149, NaN, NaN, NaN, 0.0335714, "- N/A -   "
7.38, 243.207, 0.0124232, NaN, NaN, NaN, 0.0299091, "- N/A -   "
7.44, 245.21, 0.0125259, NaN, NaN, NaN, 0.0299091, "- N/A -   "
7.5, 247.095, 0.0126148, NaN, NaN, NaN, 0.0335714, "- N/A -   "
7.56, 248.745, 0.01270364, NaN, NaN, NaN, 0.0384545, "- N/A -   "
7.62, 250.512, 0.0127925, NaN, NaN, NaN, 0.0433376, "- N/A -   "
7.68, 252.397, 0.0128869, NaN, NaN, NaN, 0.04577916, "- N/A -   "
7.74, 254.7539, 0.012998, NaN, NaN, NaN, 0.04089605, "- N/A -   "
7.8, 256.8748, 0.0131063, NaN, NaN, NaN, 0.0372337, "- N/A -   "
7.86, 258.996, 0.0132118, NaN, NaN, NaN, 0.0347922, "- N/A -   "
7.92, 261.352, 0.0133229, NaN, NaN, NaN, 0.0299091, "- N/A -   "
7.98, 263.591, 0.0134311, NaN, NaN, NaN, 0.0262467, "- N/A -   "
8.04, 265.476, 0.0135283, NaN, NaN, NaN, 0.0274675, "- N/A -   "
8.1, 267.243, 0.0136227, NaN, NaN, NaN, 0.0299091, "- N/A -   "
8.16, 269.011, 0.0137088, NaN, NaN, NaN, 0.0384545, "- N/A -   "
8.22, 270.5426, 0.0137949, NaN, NaN, NaN, 0.0433376, "- N/A -   "
8.28, 272.7813, 0.0138949, NaN, NaN, NaN, 0.0433376, "- N/A -   "
8.34, 274.784, 0.0139948, NaN, NaN, NaN, 0.0433376, "- N/A -   "
8.4, 276.9052, 0.0140948, NaN, NaN, NaN, 0.0433376, "- N/A -   "
8.46, 279.144, 0.0142003, NaN, NaN, NaN, 0.04089605, "- N/A -   "
8.52, 281.618, 0.0143225, NaN, NaN, NaN, 0.03112983, "- N/A -   "
8.58, 283.739, 0.014428, NaN, NaN, NaN, 0.0286883, "- N/A -   "
8.6, 284.446, 0.0144613, NaN, NaN, NaN, 0.0286883, "- N/A -   "
8.61, 284.8, 0.014478, NaN, NaN, NaN, 0.0286883, "- N/A -   "
8.62, 285.153, 0.0144946, NaN, NaN, NaN, 0.0286883, "- N/A -   "
8.68, 287.038, 0.0145835, NaN, NaN, NaN, 0.0335714, "- N/A -   "
8.74, 288.9235, 0.0146779, NaN, NaN, NaN, 0.03601294, "- N/A -   "
8.8, 290.8087, 0.0147695, NaN, NaN, NaN, 0.0396753, "- N/A -   "
8.86, 292.93, 0.0148695, NaN, NaN, NaN, 0.0396753, "- N/A -   "
8.92, 294.9326, 0.0149667, NaN, NaN, NaN, 0.04089605, "- N/A -   "
8.98, 296.936, 0.0150611, NaN, NaN, NaN, 0.0433376, "- N/A -   "
9.04, 298.939, 0.0151555, NaN, NaN, NaN, 0.04577916, "- N/A -   "
9.1, 301.295, 0.0152694, NaN, NaN, NaN, 0.0396753, "- N/A -   "
9.16, 303.77, 0.0153804, NaN, NaN, NaN, 0.0347922, "- N/A -   "
9.22, 306.1261, 0.0154915, NaN, NaN, NaN, 0.0299091, "- N/A -   "
9.28, 308.011, 0.0155887, NaN, NaN, NaN, 0.03112983, "- N/A -   "
9.34, 309.8965, 0.0156803, NaN, NaN, NaN, 0.03601294, "- N/A -   "
9.4, 312.135, 0.0157831, NaN, NaN, NaN, 0.0335714, "- N/A -   "
9.46, 314.492, 0.0158941, NaN, NaN, NaN, 0.0286883, "- N/A -   "
9.52, 316.1413, 0.0159774, NaN, NaN, NaN, 0.03601294, "- N/A -   "
9.58, 317.9087, 0.0160663, NaN, NaN, NaN, 0.04089605, "- N/A -   "
9.64, 320.03, 0.0161635, NaN, NaN, NaN, 0.04211683, "- N/A -   "
9.7, 322.15, 0.0162634, NaN, NaN, NaN, 0.04211683, "- N/A -   "
9.76, 324.389, 0.0163634, NaN, NaN, NaN, 0.04211683, "- N/A -   "
9.82, 326.9813, 0.0164772, NaN, NaN, NaN, 0.03601294, "- N/A -   "
9.88, 328.984, 0.0165828, NaN, NaN, NaN, 0.0347922, "- N/A -   "
9.94, 331.223, 0.0166827, NaN, NaN, NaN, 0.0335714, "- N/A -   "
10, 333.462, 0.0167855, NaN, NaN, NaN, 0.0323506, "- N/A -   "
10.06, 335.5826, 0.0168854, NaN, NaN, NaN, 0.0323506, "- N/A -   "
10.12, 337.586, 0.01697706, NaN, NaN, NaN, 0.03601294, "- N/A -   "
10.18, 339.707, 0.017077, NaN, NaN, NaN, 0.0372337, "- N/A -   "
10.24, 341.945, 0.0171798, NaN, NaN, NaN, 0.0347922, "- N/A -   "
10.3, 343.83, 0.0172714, NaN, NaN, NaN, 0.0384545, "- N/A -   "
10.36, 345.833, 0.017363, NaN, NaN, NaN, 0.04211683, "- N/A -   "
10.42, 347.719, 0.0174547, NaN, NaN, NaN, 0.04577916, "- N/A -   "
10.48, 350.311, 0.0175602, NaN, NaN, NaN, 0.0433376, "- N/A -   "
10.54, 352.6674, 0.01767125, NaN, NaN, NaN, 0.0384545, "- N/A -   "
10.6, 355.142, 0.01778232, NaN, NaN, NaN, 0.0335714, "- N/A -   "
10.66, 357.38, 0.01788506, NaN, NaN, NaN, 0.0323506, "- N/A -   "
10.72, 359.5013, 0.0179822, NaN, NaN, NaN, 0.0335714, "- N/A -   "
10.78, 361.858, 0.0180933, NaN, NaN, NaN, 0.0286883, "- N/A -   "
10.84, 364.097, 0.0181961, NaN, NaN, NaN, 0.0274675, "- N/A -   "
10.9, 366.217, 0.0182877, NaN, NaN, NaN, 0.03112983, "- N/A -   "
10.96, 367.867, 0.0183738, NaN, NaN, NaN, 0.0372337, "- N/A -   "
11.02, 369.87, 0.0184598, NaN, NaN, NaN, 0.0433376, "- N/A -   "
11.08, 371.991, 0.018557, NaN, NaN, NaN, 0.04577916, "- N/A -   "
11.14, 374.23, 0.0186598, NaN, NaN, NaN, 0.0445584, "- N/A -   "
11.2, 376.94, 0.01877362, NaN, NaN, NaN, 0.0372337, "- N/A -   "
11.26, 379.414, 0.0188819, NaN, NaN, NaN, 0.0335714, "- N/A -   "
11.32, 381.5348, 0.0189819, NaN, NaN, NaN, 0.0335714, "- N/A -   "
11.38, 384.127, 0.0190929, NaN, NaN, NaN, 0.0286883, "- N/A -   "
11.44, 386.366, 0.0191929, NaN, NaN, NaN, 0.0286883, "- N/A -   "
11.5, 388.487, 0.01928732, NaN, NaN, NaN, 0.03112983, "- N/A -   "
11.56, 390.49, 0.0193817, NaN, NaN, NaN, 0.0335714, "- N/A -   "
11.62, 392.61, 0.0194734, NaN, NaN, NaN, 0.0372337, "- N/A -   "
11.68, 394.849, 0.0195705, NaN, NaN, NaN, 0.0384545, "- N/A -   "
11.74, 396.97, 0.01966218, NaN, NaN, NaN, 0.04211683, "- N/A -   "
11.8, 398.855, 0.0197566, NaN, NaN, NaN, 0.04577916, "- N/A -   "
11.86, 401.0939, 0.0198566, NaN, NaN, NaN, 0.0445584, "- N/A -   "
11.92, 403.804, 0.0199732, NaN, NaN, NaN, 0.0372337, "- N/A -   "
11.98, 406.632, 0.020087, NaN, NaN, NaN, 0.03112983, "- N/A -   "
12.04, 408.7526, 0.020187, NaN, NaN, NaN, 0.03112983, "- N/A -   "
12.1, 410.873, 0.0202814, NaN, NaN, NaN, 0.0347922, "- N/A -   "
12.16, 413.23, 0.0203814, NaN, NaN, NaN, 0.0335714, "- N/A -   "
12.22, 415.704, 0.0204869, NaN, NaN, NaN, 0.03112983, "- N/A -   "
12.28, 417.825, 0.0205841, NaN, NaN, NaN, 0.0323506, "- N/A -   "
12.34, 419.593, 0.0206674, NaN, NaN, NaN, 0.04089605, "- N/A -   "
12.4, 421.713, 0.020759, NaN, NaN, NaN, 0.0445584, "- N/A -   "
12.46, 424.07, 0.0208562, NaN, NaN, NaN, 0.0445584, "- N/A -   "
12.52, 426.898, 0.0209728, NaN, NaN, NaN, 0.0372337, "- N/A -   "
12.58, 429.49, 0.0210839, NaN, NaN, NaN, 0.0335714, "- N/A -   "
12.64, 431.8465, 0.0211866, NaN, NaN, NaN, 0.03112983, "- N/A -   "
12.7, 433.9674, 0.021281, NaN, NaN, NaN, 0.0347922, "- N/A -   "
12.76, 436.2061, 0.0213782, NaN, NaN, NaN, 0.03601294, "- N/A -   "
12.82, 438.68, 0.021481, NaN, NaN, NaN, 0.0347922, "- N/A -   "
12.88, 441.037, 0.0215865, NaN, NaN, NaN, 0.0323506, "- N/A -   "
12.94, 443.276, 0.0216809, NaN, NaN, NaN, 0.0347922, "- N/A -   "
13, 445.161, 0.02176418, NaN, NaN, NaN, 0.04211683, "- N/A -   "
[...]
19.39, 708.9, 0.03243246, NaN, NaN, NaN, 0.0335714, "- N/A -   "
19.53, 714.6957, 0.03266293, NaN, NaN, NaN, 0.0347922, "- N/A -   "
19.67, 720.8463, 0.0329045, NaN, NaN, NaN, 0.03112983, "- N/A -   "
19.81, 726.2873, 0.0331211, NaN, NaN, NaN, 0.0384545, "- N/A -   "
19.95, 732.2013, 0.0333516, NaN, NaN, NaN, 0.0396753, "- N/A -   "
20.09, 738.2336, 0.03358759, NaN, NaN, NaN, 0.0384545, "- N/A -   "
20.23, 744.5025, 0.0338319, NaN, NaN, NaN, 0.0335714, "- N/A -   "
20.37, 750.6531, 0.03406797, NaN, NaN, NaN, 0.0323506, "- N/A -   "
20.51, 756.449, 0.03429566, NaN, NaN, NaN, 0.0347922, "- N/A -   "
20.65, 761.6532, 0.0345067, NaN, NaN, NaN, 0.0445584, "- N/A -   "
20.79, 768.5135, 0.03475938, NaN, NaN, NaN, 0.03601294, "- N/A -   "
20.93, 774.546, 0.0349982, NaN, NaN, NaN, 0.0335714, "- N/A -   "
21.07, 781.17, 0.03524531, NaN, NaN, NaN, 0.0274675, "- N/A -   "
21.21, 786.1374, 0.03545079, NaN, NaN, NaN, 0.04089605, "- N/A -   "
21.35, 791.9331, 0.0356702, NaN, NaN, NaN, 0.04577916, "- N/A -   "
21.49, 798.7934, 0.0359312, NaN, NaN, NaN, 0.0335714, "- N/A -   "
21.63, 805.0623, 0.0361755, NaN, NaN, NaN, 0.0286883, "- N/A -   "
21.77, 810.9763, 0.0364032, NaN, NaN, NaN, 0.0323506, "- N/A -   "
21.91, 816.181, 0.0366115, NaN, NaN, NaN, 0.0445584, "- N/A -   "
22.05, 822.331, 0.0368392, NaN, NaN, NaN, 0.04577916, "- N/A -   "
22.19, 829.4281, 0.03710851, NaN, NaN, NaN, 0.0299091, "- N/A -   "
22.33, 834.9873, 0.03733343, NaN, NaN, NaN, 0.0335714, "- N/A -   "
22.47, 840.9014, 0.0375583, NaN, NaN, NaN, 0.0384545, "- N/A -   "
22.61, 846.579, 0.0377749, NaN, NaN, NaN, 0.0445584, "- N/A -   "
22.75, 852.966, 0.03801929, NaN, NaN, NaN, 0.0396753, "- N/A -   "
22.89, 859.708, 0.0382747, NaN, NaN, NaN, 0.0299091, "- N/A -   "
23.03, 865.2672, 0.03849689, NaN, NaN, NaN, 0.0347922, "- N/A -   "
23.17, 871.5361, 0.0387301, NaN, NaN, NaN, 0.0347922, "- N/A -   "
23.31, 876.977, 0.0389467, NaN, NaN, NaN, 0.04211683, "- N/A -   "
23.45, 883.3642, 0.0391883, NaN, NaN, NaN, 0.0384545, "- N/A -   "
23.59, 889.633, 0.03942432, NaN, NaN, NaN, 0.0372337, "- N/A -   "
23.73, 895.902, 0.0396659, NaN, NaN, NaN, 0.0347922, "- N/A -   "
23.87, 902.053, 0.0399019, NaN, NaN, NaN, 0.0323506, "- N/A -   "
24.01, 907.493, 0.0401157, NaN, NaN, NaN, 0.04089605, "- N/A -   "
24.15, 913.644, 0.0403462, NaN, NaN, NaN, 0.04211683, "- N/A -   "
24.29, 920.3861, 0.0406044, NaN, NaN, NaN, 0.03112983, "- N/A -   "
24.43, 926.5367, 0.0408432, NaN, NaN, NaN, 0.0299091, "- N/A -   "
24.57, 932.3325, 0.04106538, NaN, NaN, NaN, 0.0335714, "- N/A -   "
24.71, 937.655, 0.0412736, NaN, NaN, NaN, 0.0445584, "- N/A -   "
24.85, 944.1605, 0.041518, NaN, NaN, NaN, 0.0396753, "- N/A -   "
24.99, 950.429, 0.04176235, NaN, NaN, NaN, 0.0347922, "- N/A -   "
25.13, 956.6983, 0.0420039, NaN, NaN, NaN, 0.03112983, "- N/A -   "
25.27, 962.2575, 0.0422233, NaN, NaN, NaN, 0.0372337, "- N/A -   "
25.41, 967.935, 0.04244543, NaN, NaN, NaN, 0.04211683, "- N/A -   "
25.55, 974.5587, 0.04269256, NaN, NaN, NaN, 0.0372337, "- N/A -   "
25.69, 980.946, 0.0429369, NaN, NaN, NaN, 0.03112983, "- N/A -   "
25.83, 986.9783, 0.0431646, NaN, NaN, NaN, 0.0347922, "- N/A -   "
25.97, 992.774, 0.04338675, NaN, NaN, NaN, 0.0384545, "- N/A -   "
26.11, 998.4515, 0.0436089, NaN, NaN, NaN, 0.0433376, "- N/A -   "
26.25, 1005.31, 0.04386435, NaN, NaN, NaN, 0.0347922, "- N/A -   "
26.39, 1011.34, 0.044092, NaN, NaN, NaN, 0.0372337, "- N/A -   "
26.53, 1017.41, 0.04433084, NaN, NaN, NaN, 0.0347922, "- N/A -   "
26.67, 1023.26, 0.0445502, NaN, NaN, NaN, 0.04089605, "- N/A -   "
26.81, 1029.22, 0.0447807, NaN, NaN, NaN, 0.04211683, "- N/A -   "
26.95, 1035.78, 0.0450278, NaN, NaN, NaN, 0.03601294, "- N/A -   "
27.09, 1042.34, 0.04527216, NaN, NaN, NaN, 0.03112983, "- N/A -   "
27.23, 1048.3, 0.04549708, NaN, NaN, NaN, 0.0347922, "- N/A -   "
27.37, 1054.02, 0.0457192, NaN, NaN, NaN, 0.0396753, "- N/A -   "
27.51, 1060.1, 0.0459441, NaN, NaN, NaN, 0.0433376, "- N/A -   "
27.65, 1066.78, 0.04619682, NaN, NaN, NaN, 0.03601294, "- N/A -   "
27.79, 1072.98, 0.04643562, NaN, NaN, NaN, 0.0335714, "- N/A -   "
27.93, 1079.18, 0.04666887, NaN, NaN, NaN, 0.0323506, "- N/A -   "
28.07, 1084.43, 0.0468771, NaN, NaN, NaN, 0.0433376, "- N/A -   "
28.21, 1090.87, 0.0471131, NaN, NaN, NaN, 0.04211683, "- N/A -   "
28.35, 1097.79, 0.0473686, NaN, NaN, NaN, 0.0323506, "- N/A -   "
28.49, 1104.11, 0.0476102, NaN, NaN, NaN, 0.0286883, "- N/A -   "
28.63, 1109.59, 0.047824, NaN, NaN, NaN, 0.0372337, "- N/A -   "
28.77, 1115.2, 0.04803781, NaN, NaN, NaN, 0.04577916, "- N/A -   "
28.91, 1121.76, 0.0482794, NaN, NaN, NaN, 0.04211683, "- N/A -   "
29.05, 1128.56, 0.0485404, NaN, NaN, NaN, 0.0299091, "- N/A -   "
29.19, 1134.4, 0.0487653, NaN, NaN, NaN, 0.0347922, "- N/A -   "
29.33, 1140.48, 0.04899023, NaN, NaN, NaN, 0.0372337, "- N/A -   "
29.47, 1146.09, 0.04920682, NaN, NaN, NaN, 0.0445584, "- N/A -   "
29.61, 1153.36, 0.04947061, NaN, NaN, NaN, 0.03112983, "- N/A -   "
29.75, 1159.44, 0.0497039, NaN, NaN, NaN, 0.03112983, "- N/A -   "
29.89, 1165.52, 0.0499371, NaN, NaN, NaN, 0.0323506, "- N/A -   "
30.03, 1171.37, 0.05015647, NaN, NaN, NaN, 0.0372337, "- N/A -   "
30.17, 1177.33, 0.0503814, NaN, NaN, NaN, 0.04211683, "- N/A -   "
30.31, 1184.01, 0.0506257, NaN, NaN, NaN, 0.03601294, "- N/A -   "
30.45, 1190.21, 0.050859, NaN, NaN, NaN, 0.03601294, "- N/A -   "
30.59, 1196.53, 0.0511006, NaN, NaN, NaN, 0.0323506, "- N/A -   "
30.73, 1202.61, 0.0513338, NaN, NaN, NaN, 0.0323506, "- N/A -   "
30.87, 1208.33, 0.0515504, NaN, NaN, NaN, 0.04089605, "- N/A -   "
31.01, 1214.42, 0.05178087, NaN, NaN, NaN, 0.04211683, "- N/A -   "
31.15, 1220.98, 0.05202522, NaN, NaN, NaN, 0.0372337, "- N/A -   "
31.29, 1227.89, 0.0522862, NaN, NaN, NaN, 0.0250259, "- N/A -   "
31.43, 1233.02, 0.0524862, NaN, NaN, NaN, 0.0396753, "- N/A -   "
31.57, 1238.51, 0.0526972, NaN, NaN, NaN, 0.0494415, "- N/A -   "
31.71, 1245.54, 0.0529638, NaN, NaN, NaN, 0.0347922, "- N/A -   "
31.85, 1251.981, 0.05320534, NaN, NaN, NaN, 0.03112983, "- N/A -   "
31.99, 1258.18, 0.0534414, NaN, NaN, NaN, 0.03112983, "- N/A -   "
32.13, 1263.31, 0.0536441, NaN, NaN, NaN, 0.0433376, "- N/A -   "
32.27, 1269.51, 0.0538773, NaN, NaN, NaN, 0.0433376, "- N/A -   "
32.41, 1276.43, 0.0541356, NaN, NaN, NaN, 0.0323506, "- N/A -   "
32.55, 1282.75, 0.0543799, NaN, NaN, NaN, 0.0286883, "- N/A -   "
32.69, 1288.23, 0.05458816, NaN, NaN, NaN, 0.0384545, "- N/A -   "
32.83, 1294.2, 0.0548131, NaN, NaN, NaN, 0.04211683, "- N/A -   "
32.97, 1300.278, 0.05504633, NaN, NaN, NaN, 0.04211683, "- N/A -   "
33.11, 1307.31, 0.0553046, NaN, NaN, NaN, 0.03112983, "- N/A -   "
33.25, 1312.92, 0.0555239, NaN, NaN, NaN, 0.0372337, "- N/A -   "
33.39, 1319.239, 0.05575995, NaN, NaN, NaN, 0.03601294, "- N/A -   "
33.53, 1325.08, 0.05598487, NaN, NaN, NaN, 0.0396753, "- N/A -   "
33.67, 1331.28, 0.0562209, NaN, NaN, NaN, 0.0384545, "- N/A -   "
33.81, 1337.6, 0.0564597, NaN, NaN, NaN, 0.03601294, "- N/A -   "
33.95, 1344.04, 0.056704, NaN, NaN, NaN, 0.03112983, "- N/A -   "
34.09, 1350.24, 0.0569345, NaN, NaN, NaN, 0.0323506, "- N/A -   "
34.23, 1355.611, 0.0571511, NaN, NaN, NaN, 0.04089605, "- N/A -   "
34.37, 1361.69, 0.05737602, NaN, NaN, NaN, 0.0433376, "- N/A -   "
34.51, 1368.61, 0.05763426, NaN, NaN, NaN, 0.0323506, "- N/A -   "
34.65, 1374.93, 0.05787306, NaN, NaN, NaN, 0.0299091, "- N/A -   "
34.79, 1380.77, 0.0581008, NaN, NaN, NaN, 0.0323506, "- N/A -   "
34.93, 1386.02, 0.0583035, NaN, NaN, NaN, 0.04577916, "- N/A -   "
35.07, 1392.82, 0.0585534, NaN, NaN, NaN, 0.0384545, "- N/A -   "
35.21, 1399.38, 0.05880327, NaN, NaN, NaN, 0.03112983, "- N/A -   "
35.35, 1405.7, 0.0590476, NaN, NaN, NaN, 0.0286883, "- N/A -   "
35.49, 1411.06, 0.05925033, NaN, NaN, NaN, 0.04089605, "- N/A -   "
35.63, 1416.79, 0.0594697, NaN, NaN, NaN, 0.04699994, "- N/A -   "
35.77, 1423.7, 0.0597252, NaN, NaN, NaN, 0.0372337, "- N/A -   "
35.91, 1430.382, 0.0599806, NaN, NaN, NaN, 0.0286883, "- N/A -   "
36.05, 1435.87, 0.0601944, NaN, NaN, NaN, 0.03601294, "- N/A -   "
36.19, 1441.95, 0.06042212, NaN, NaN, NaN, 0.0384545, "- N/A -   "
36.33, 1447.55, 0.0606415, NaN, NaN, NaN, 0.0445584, "- N/A -   "
36.47, 1454.59, 0.0609053, NaN, NaN, NaN, 0.03112983, "- N/A -   "
36.61, 1460.195, 0.06112464, NaN, NaN, NaN, 0.0372337, "- N/A -   "
36.75, 1466.75, 0.06137177, NaN, NaN, NaN, 0.03112983, "- N/A -   "
36.89, 1472.12, 0.06158, NaN, NaN, NaN, 0.04211683, "- N/A -   "
37.03, 1478.08, 0.0618105, NaN, NaN, NaN, 0.0433376, "- N/A -   "
37.17, 1484.88, 0.06206318, NaN, NaN, NaN, 0.0347922, "- N/A -   "
37.172, 1485, 0.06206596, NaN, NaN, NaN, 0.03601294, "- N/A -   "