File: 2_Tensile_Data/Hamel_ForceTest_Bolt7_Test1.csv
Time, Load (lb), Position (in), AxialStrain (in), TransverseStrain (in), Auxiliary (), Control Out (V), Stress (psi)
0.0,1.06153,0.0, NaN, NaN, NaN,0.09705182," ""- N/A -   """
0.00999999,1.29742,2.77675e-05, NaN, NaN, NaN,0.09338949," ""- N/A -   """
0.14,3.53842,0.0003165497, NaN, NaN, NaN,0.0604285," ""- N/A -   """
0.27,6.251216,0.0005942249, NaN, NaN, NaN,0.0335714," ""- N/A -   """
0.4,8.964007,0.0008080348, NaN, NaN, NaN,0.0347922," ""- N/A -   """
0.53,11.5589,0.001019068, NaN, NaN, NaN,0.0372337," ""- N/A -   """
0.66,14.2716,0.00122177, NaN, NaN, NaN,0.0433376," ""- N/A -   """
0.79,17.3383,0.00145224, NaN, NaN, NaN,0.0372337," ""- N/A -   """
0.92,20.287,0.00167993, NaN, NaN, NaN,0.0323506," ""- N/A -   """
1.05,23.4715,0.00189374, NaN, NaN, NaN,0.0335714," ""- N/A -   """
1.18,26.6561,0.00211033, NaN, NaN, NaN,0.0335714," ""- N/A -   """
1.31,29.4869,0.002304704, NaN, NaN, NaN,0.0433376," ""- N/A -   """
1.44,33.1432,0.0025324, NaN, NaN, NaN,0.0384545," ""- N/A -   """
1.57,36.6817,0.002751761, NaN, NaN, NaN,0.0372337," ""- N/A -   """
1.7,40.57393,0.00298223, NaN, NaN, NaN,0.03112983," ""- N/A -   """
1.83,44.2303,0.00319326, NaN, NaN, NaN,0.0347922," ""- N/A -   """
1.96,47.8867,0.00340152, NaN, NaN, NaN,0.0372337," ""- N/A -   """
2.09,51.4251,0.003604224, NaN, NaN, NaN,0.0433376," ""- N/A -   """
2.22,56.02505,0.003837471, NaN, NaN, NaN,0.03601294," ""- N/A -   """
2.35,60.27116,0.00405961, NaN, NaN, NaN,0.0335714," ""- N/A -   """
2.48,64.75317,0.004284528, NaN, NaN, NaN,0.0299091," ""- N/A -   """
2.61,68.6454,0.00449001, NaN, NaN, NaN,0.0347922," ""- N/A -   """
2.74,72.65564,0.004687157, NaN, NaN, NaN,0.0433376," ""- N/A -   """
2.87,77.6094,0.004917627, NaN, NaN, NaN,0.0384545," ""- N/A -   """
3,82.32734,0.00514254, NaN, NaN, NaN,0.0347922," ""- N/A -   """
3.13,87.28113,0.00537024, NaN, NaN, NaN,0.0286883," ""- N/A -   """
3.26,91.52724,0.00557294, NaN, NaN, NaN,0.03601294," ""- N/A -   """
3.39,95.7733,0.00576731, NaN, NaN, NaN,0.0445584," ""- N/A -   """
3.52,100.963,0.005995007, NaN, NaN, NaN,0.04211683," ""- N/A -   """
3.65,106.507,0.006239361, NaN, NaN, NaN,0.0286883," ""- N/A -   """
3.78,111.107,0.006447618, NaN, NaN, NaN,0.0323506," ""- N/A -   """
3.91,115.706,0.0066531, NaN, NaN, NaN,0.0384545," ""- N/A -   """
4.04,120.424,0.00685858, NaN, NaN, NaN,0.0433376," ""- N/A -   """
4.17,125.378,0.00707516, NaN, NaN, NaN,0.04211683," ""- N/A -   """
4.3,131.04,0.007319518, NaN, NaN, NaN,0.03112983," ""- N/A -   """
4.43,135.758,0.007525, NaN, NaN, NaN,0.0347922," ""- N/A -   """
4.56,140.829,0.007747138, NaN, NaN, NaN,0.0323506," ""- N/A -   """
4.69,145.311,0.007944287, NaN, NaN, NaN,0.04211683," ""- N/A -   """
4.82,150.383,0.008158097, NaN, NaN, NaN,0.04211683," ""- N/A -   """
4.95,155.573,0.008388568, NaN, NaN, NaN,0.03601294," ""- N/A -   """
5.08,160.409,0.00860793, NaN, NaN, NaN,0.0347922," ""- N/A -   """
5.21,165.4803,0.00883007, NaN, NaN, NaN,0.0323506," ""- N/A -   """
5.34,170.316,0.009043881, NaN, NaN, NaN,0.0335714," ""- N/A -   """
5.47,174.6802,0.009246584, NaN, NaN, NaN,0.0396753," ""- N/A -   """
5.6,179.3981,0.009457616, NaN, NaN, NaN,0.04211683," ""- N/A -   """
5.73,184.706,0.00969642, NaN, NaN, NaN,0.0335714," ""- N/A -   """
5.86,189.66,0.009918558, NaN, NaN, NaN,0.0299091," ""- N/A -   """
5.99,194.024,0.0101324, NaN, NaN, NaN,0.03112983," ""- N/A -   """
6.12,197.68,0.0103129, NaN, NaN, NaN,0.04699994," ""- N/A -   """
6.25,202.28,0.0105378, NaN, NaN, NaN,0.0445584," ""- N/A -   """
6.38,207.352,0.0107849, NaN, NaN, NaN,0.03112983," ""- N/A -   """
6.51,211.48,0.011007, NaN, NaN, NaN,0.0274675," ""- N/A -   """
6.64,215.254,0.0112153, NaN, NaN, NaN,0.0323506," ""- N/A -   """
6.77,218.793,0.0114069, NaN, NaN, NaN,0.04211683," ""- N/A -   """
6.9,223.039,0.0116207, NaN, NaN, NaN,0.0433376," ""- N/A -   """
7.03,227.757,0.0118623, NaN, NaN, NaN,0.0335714," ""- N/A -   """
7.16,232.003,0.0120844, NaN, NaN, NaN,0.0299091," ""- N/A -   """
7.29,235.895,0.0122871, NaN, NaN, NaN,0.03601294," ""- N/A -   """
7.42,240.0231,0.0124954, NaN, NaN, NaN,0.0396753," ""- N/A -   """
7.55,243.7961,0.0126981, NaN, NaN, NaN,0.04699994," ""- N/A -   """
7.68,248.98,0.012948, NaN, NaN, NaN,0.03112983," ""- N/A -   """
7.81,253.222,0.0131646, NaN, NaN, NaN,0.03112983," ""- N/A -   """
7.94,257.4639,0.0133812, NaN, NaN, NaN,0.03112983," ""- N/A -   """
8.07,261.706,0.0135894, NaN, NaN, NaN,0.03601294," ""- N/A -   """
8.2,265.83,0.0137977, NaN, NaN, NaN,0.0396753," ""- N/A -   """
8.33,270.189,0.0140143, NaN, NaN, NaN,0.0396753," ""- N/A -   """
8.46,274.313,0.0142281, NaN, NaN, NaN,0.04211683," ""- N/A -   """
8.59,279.144,0.0144558, NaN, NaN, NaN,0.03601294," ""- N/A -   """
8.72,283.6213,0.0146807, NaN, NaN, NaN,0.0323506," ""- N/A -   """
8.85,287.7452,0.01488339, NaN, NaN, NaN,0.0396753," ""- N/A -   """
8.98,291.987,0.0150889, NaN, NaN, NaN,0.0433376," ""- N/A -   """
9.11,296.936,0.0153304, NaN, NaN, NaN,0.0323506," ""- N/A -   """
9.24,301.413,0.01554148, NaN, NaN, NaN,0.0347922," ""- N/A -   """
9.37,306.2439,0.0157747, NaN, NaN, NaN,0.0274675," ""- N/A -   """
9.5,309.7787,0.015958, NaN, NaN, NaN,0.04211683," ""- N/A -   """
9.63,314.374,0.0161718, NaN, NaN, NaN,0.0433376," ""- N/A -   """
9.76,319.44,0.0164078, NaN, NaN, NaN,0.0347922," ""- N/A -   """
9.89,324.2713,0.0166383, NaN, NaN, NaN,0.0286883," ""- N/A -   """
10.02,328.7487,0.0168521, NaN, NaN, NaN,0.0299091," ""- N/A -   """
10.15,332.4013,0.01703815, NaN, NaN, NaN,0.0433376," ""- N/A -   """
10.28,336.997,0.0172547, NaN, NaN, NaN,0.0445584," ""- N/A -   """
10.41,342.181,0.017488, NaN, NaN, NaN,0.03601294," ""- N/A -   """
10.54,347.247,0.01772123, NaN, NaN, NaN,0.0286883," ""- N/A -   """
10.67,351.489,0.01792671, NaN, NaN, NaN,0.0347922," ""- N/A -   """
10.8,356.084,0.0181433, NaN, NaN, NaN,0.0335714," ""- N/A -   """
10.93,360.326,0.0183377, NaN, NaN, NaN,0.0433376," ""- N/A -   """
11.06,365.628,0.01857647, NaN, NaN, NaN,0.0335714," ""- N/A -   """
11.19,370.223,0.0187931, NaN, NaN, NaN,0.0347922," ""- N/A -   """
11.32,374.937,0.0190041, NaN, NaN, NaN,0.03601294," ""- N/A -   """
11.45,379.65,0.0192207, NaN, NaN, NaN,0.03601294," ""- N/A -   """
11.58,384.245,0.0194289, NaN, NaN, NaN,0.0396753," ""- N/A -   """
11.71,389.076,0.0196511, NaN, NaN, NaN,0.0372337," ""- N/A -   """
11.84,394.024,0.0198732, NaN, NaN, NaN,0.0347922," ""- N/A -   """
11.97,398.855,0.02009813, NaN, NaN, NaN,0.0323506," ""- N/A -   """
12.1,403.4504,0.0203092, NaN, NaN, NaN,0.0347922," ""- N/A -   """
12.23,408.163,0.0205202, NaN, NaN, NaN,0.0372337," ""- N/A -   """
12.36,412.641,0.0207229, NaN, NaN, NaN,0.04211683," ""- N/A -   """
12.49,418.1787,0.0209589, NaN, NaN, NaN,0.0335714," ""- N/A -   """
12.62,422.6561,0.02116718, NaN, NaN, NaN,0.0384545," ""- N/A -   """
12.75,428.076,0.0214004, NaN, NaN, NaN,0.03112983," ""- N/A -   """
12.88,432.2,0.0216004, NaN, NaN, NaN,0.0384545," ""- N/A -   """
13.01,436.7952,0.02180028, NaN, NaN, NaN,0.04577916," ""- N/A -   """
13.14,442.215,0.0220335, NaN, NaN, NaN,0.0384545," ""- N/A -   """
13.27,447.753,0.0222723, NaN, NaN, NaN,0.0299091," ""- N/A -   """
13.4,452.584,0.02249169, NaN, NaN, NaN,0.0286883," ""- N/A -   """
13.53,456.943,0.0226861, NaN, NaN, NaN,0.0372337," ""- N/A -   """
13.66,461.657,0.02288599, NaN, NaN, NaN,0.0445584," ""- N/A -   """
13.79,467.194,0.0231192, NaN, NaN, NaN,0.0372337," ""- N/A -   """
13.92,472.143,0.0233386, NaN, NaN, NaN,0.03601294," ""- N/A -   """
14.05,476.974,0.0235496, NaN, NaN, NaN,0.0396753," ""- N/A -   """
14.18,482.158,0.0237718, NaN, NaN, NaN,0.03601294," ""- N/A -   """
14.31,486.8713,0.0239745, NaN, NaN, NaN,0.04211683," ""- N/A -   """
14.44,492.173,0.0242022, NaN, NaN, NaN,0.0372337," ""- N/A -   """
14.57,497.829,0.02444097, NaN, NaN, NaN,0.0274675," ""- N/A -   """
14.7,502.66,0.0246464, NaN, NaN, NaN,0.0335714," ""- N/A -   """
14.83,507.491,0.0248575, NaN, NaN, NaN,0.0347922," ""- N/A -   """
14.96,512.086,0.0250574, NaN, NaN, NaN,0.04211683," ""- N/A -   """
15.09,517.403,0.0252795, NaN, NaN, NaN,0.04089605," ""- N/A -   """
15.22,522.962,0.0255072, NaN, NaN, NaN,0.0347922," ""- N/A -   """
15.35,528.1668,0.0257294, NaN, NaN, NaN,0.0323506," ""- N/A -   """
15.48,533.135,0.0259404, NaN, NaN, NaN,0.03601294," ""- N/A -   """
15.61,538.2207,0.026157, NaN, NaN, NaN,0.0347922," ""- N/A -   """
15.74,542.952,0.02635415, NaN, NaN, NaN,0.0433376," ""- N/A -   """
15.87,548.5111,0.0265846, NaN, NaN, NaN,0.0384545," ""- N/A -   """
16,554.0703,0.0268151, NaN, NaN, NaN,0.03112983," ""- N/A -   """
16.13,559.5112,0.0270456, NaN, NaN, NaN,0.0262467," ""- N/A -   """
16.26,564.2425,0.0272427, NaN, NaN, NaN,0.0347922," ""- N/A -   """
16.39,568.5006,0.02743153, NaN, NaN, NaN,0.04577916," ""- N/A -   """
16.52,574.4146,0.0276676, NaN, NaN, NaN,0.0372337," ""- N/A -   """
16.65,579.8555,0.02789525, NaN, NaN, NaN,0.0323506," ""- N/A -   """
16.78,585.2965,0.02811739, NaN, NaN, NaN,0.03112983," ""- N/A -   """
16.91,589.9094,0.0283173, NaN, NaN, NaN,0.0372337," ""- N/A -   """
17.04,594.7589,0.02852002, NaN, NaN, NaN,0.0433376," ""- N/A -   """
17.17,600.1998,0.0287394, NaN, NaN, NaN,0.0433376," ""- N/A -   """
17.3,606.35,0.0289837, NaN, NaN, NaN,0.03112983," ""- N/A -   """
17.43,611.5549,0.0292003, NaN, NaN, NaN,0.03112983," ""- N/A -   """
17.56,616.6409,0.02940858, NaN, NaN, NaN,0.0347922," ""- N/A -   """
17.69,621.49,0.0296113, NaN, NaN, NaN,0.04211683," ""- N/A -   """
17.82,626.5765,0.0298168, NaN, NaN, NaN,0.04577916," ""- N/A -   """
17.95,632.9637,0.0300694, NaN, NaN, NaN,0.0299091," ""- N/A -   """
18.08,637.8132,0.0302694, NaN, NaN, NaN,0.0372337," ""- N/A -   """
18.21,643.2541,0.0304943, NaN, NaN, NaN,0.0335714," ""- N/A -   """
18.34,648.2219,0.0306942, NaN, NaN, NaN,0.04089605," ""- N/A -   """
18.47,653.545,0.0309136, NaN, NaN, NaN,0.0396753," ""- N/A -   """
18.6,658.8672,0.0311329, NaN, NaN, NaN,0.0384545," ""- N/A -   """
18.73,664.5446,0.0313606, NaN, NaN, NaN,0.0335714," ""- N/A -   """
18.79,667.147,0.0314634, NaN, NaN, NaN,0.0323506," ""- N/A -   """
18.8,667.62,0.03148, NaN, NaN, NaN,0.0323506," ""- N/A -   """
18.81,667.9748,0.03149947, NaN, NaN, NaN,0.0323506," ""- N/A -   """
18.89,671.405,0.0316355, NaN, NaN, NaN,0.0299091," ""- N/A -   """
18.97,674.5985,0.031766, NaN, NaN, NaN,0.03112983," ""- N/A -   """
19.05,677.437,0.03188544, NaN, NaN, NaN,0.0384545," ""- N/A -   """
19.13,680.3943,0.03200762, NaN, NaN, NaN,0.04211683," ""- N/A -   """
19.21,683.5878,0.03213535, NaN, NaN, NaN,0.04577916," ""- N/A -   """
19.29,687.373,0.0322825, NaN, NaN, NaN,0.0396753," ""- N/A -   """
19.37,691.04,0.03242413, NaN, NaN, NaN,0.0347922," ""- N/A -   """
19.45,694.2331,0.03255464, NaN, NaN, NaN,0.03601294," ""- N/A -   """
19.53,698.0181,0.0327018, NaN, NaN, NaN,0.0299091," ""- N/A -   """
19.61,701.2117,0.0328351, NaN, NaN, NaN,0.0299091," ""- N/A -   """
19.69,703.9321,0.0329489, NaN, NaN, NaN,0.0384545," ""- N/A -   """
19.77,706.7709,0.03306556, NaN, NaN, NaN,0.04577916," ""- N/A -   """
19.85,710.201,0.0332016, NaN, NaN, NaN,0.04577916," ""- N/A -   """
19.93,714.1043,0.03334879, NaN, NaN, NaN,0.0384545," ""- N/A -   """
20.01,717.6527,0.03349318, NaN, NaN, NaN,0.0335714," ""- N/A -   """
20.09,721.319,0.0336348, NaN, NaN, NaN,0.03112983," ""- N/A -   """
20.17,724.7496,0.03377641, NaN, NaN, NaN,0.0262467," ""- N/A -   """
20.25,727.9432,0.0339014, NaN, NaN, NaN,0.0299091," ""- N/A -   """
20.33,730.545,0.034018, NaN, NaN, NaN,0.0372337," ""- N/A -   """
20.41,733.3841,0.0341318, NaN, NaN, NaN,0.04577916," ""- N/A -   """
20.49,737.169,0.03427345, NaN, NaN, NaN,0.04211683," ""- N/A -   """
20.57,740.481,0.0344095, NaN, NaN, NaN,0.04211683," ""- N/A -   """
20.65,744.029,0.0345483, NaN, NaN, NaN,0.0384545," ""- N/A -   """
20.73,748.0509,0.0347011, NaN, NaN, NaN,0.0299091," ""- N/A -   """
20.81,751.2445,0.0348316, NaN, NaN, NaN,0.03112983," ""- N/A -   """
20.89,754.556,0.03495653, NaN, NaN, NaN,0.0347922," ""- N/A -   """
20.97,757.6317,0.03508426, NaN, NaN, NaN,0.0372337," ""- N/A -   """
21.05,760.825,0.03521199, NaN, NaN, NaN,0.0396753," ""- N/A -   """
21.13,764.0188,0.03533694, NaN, NaN, NaN,0.0445584," ""- N/A -   """
21.21,767.449,0.03547023, NaN, NaN, NaN,0.0433376," ""- N/A -   """
21.29,771.7071,0.03563128, NaN, NaN, NaN,0.03112983," ""- N/A -   """
21.37,775.1372,0.0357729, NaN, NaN, NaN,0.0286883," ""- N/A -   """
21.45,778.212,0.0358951, NaN, NaN, NaN,0.0323506," ""- N/A -   """
21.53,781.288,0.03602, NaN, NaN, NaN,0.0372337," ""- N/A -   """
21.61,785.0728,0.03616164, NaN, NaN, NaN,0.0335714," ""- N/A -   """
21.69,788.266,0.0362921, NaN, NaN, NaN,0.03601294," ""- N/A -   """
21.77,791.1051,0.03640877, NaN, NaN, NaN,0.0433376," ""- N/A -   """
21.85,794.5353,0.0365421, NaN, NaN, NaN,0.04211683," ""- N/A -   """
21.93,798.0837,0.0366837, NaN, NaN, NaN,0.0396753," ""- N/A -   """
22.01,801.5138,0.0368142, NaN, NaN, NaN,0.0396753," ""- N/A -   """
22.09,804.944,0.0369502, NaN, NaN, NaN,0.0384545," ""- N/A -   """
22.17,808.729,0.0370974, NaN, NaN, NaN,0.0323506," ""- N/A -   """
22.25,811.804,0.03722236, NaN, NaN, NaN,0.03601294," ""- N/A -   """
22.33,815.116,0.0373556, NaN, NaN, NaN,0.03601294," ""- N/A -   """
22.41,818.428,0.0374889, NaN, NaN, NaN,0.03601294," ""- N/A -   """
22.49,821.5033,0.03761388, NaN, NaN, NaN,0.04089605," ""- N/A -   """
22.57,824.8151,0.0377416, NaN, NaN, NaN,0.04211683," ""- N/A -   """
22.65,828.364,0.0378777, NaN, NaN, NaN,0.04089605," ""- N/A -   """
22.73,832.385,0.0380304, NaN, NaN, NaN,0.0335714," ""- N/A -   """
22.81,835.5787,0.0381637, NaN, NaN, NaN,0.0335714," ""- N/A -   """
22.89,838.8906,0.038297, NaN, NaN, NaN,0.0335714," ""- N/A -   """
22.97,842.6756,0.0384414, NaN, NaN, NaN,0.0274675," ""- N/A -   """
23.05,845.869,0.03856353, NaN, NaN, NaN,0.0323506," ""- N/A -   """
23.13,848.708,0.0386829, NaN, NaN, NaN,0.0396753," ""- N/A -   """
23.21,851.4284,0.0387968, NaN, NaN, NaN,0.04699994," ""- N/A -   """
23.29,855.0951,0.0389384, NaN, NaN, NaN,0.0433376," ""- N/A -   """
23.37,858.9983,0.0390856, NaN, NaN, NaN,0.0372337," ""- N/A -   """
23.45,862.547,0.03922717, NaN, NaN, NaN,0.0347922," ""- N/A -   """
23.53,866.3317,0.0393688, NaN, NaN, NaN,0.0299091," ""- N/A -   """
23.61,869.5254,0.0395021, NaN, NaN, NaN,0.0299091," ""- N/A -   """
23.69,872.8372,0.0396298, NaN, NaN, NaN,0.0335714," ""- N/A -   """
23.77,875.676,0.03974365, NaN, NaN, NaN,0.04089605," ""- N/A -   """
23.85,878.633,0.0398686, NaN, NaN, NaN,0.0445584," ""- N/A -   """
23.93,882.181,0.0400047, NaN, NaN, NaN,0.0445584," ""- N/A -   """
24.01,885.9664,0.04014905, NaN, NaN, NaN,0.0396753," ""- N/A -   """
24.09,889.9879,0.0403018, NaN, NaN, NaN,0.0299091," ""- N/A -   """
24.17,893.4181,0.0404378, NaN, NaN, NaN,0.0286883," ""- N/A -   """
24.25,896.612,0.0405683, NaN, NaN, NaN,0.03112983," ""- N/A -   """
24.33,899.9235,0.0406933, NaN, NaN, NaN,0.0347922," ""- N/A -   """
24.41,903.235,0.04082381, NaN, NaN, NaN,0.0347922," ""- N/A -   """
24.49,906.3107,0.04094876, NaN, NaN, NaN,0.0396753," ""- N/A -   """
24.57,909.2677,0.0410682, NaN, NaN, NaN,0.0445584," ""- N/A -   """
24.65,912.8161,0.0412014, NaN, NaN, NaN,0.0445584," ""- N/A -   """
24.73,917.0743,0.0413625, NaN, NaN, NaN,0.0335714," ""- N/A -   """
24.81,920.3861,0.0414958, NaN, NaN, NaN,0.0323506," ""- N/A -   """
24.89,923.58,0.04162351, NaN, NaN, NaN,0.0347922," ""- N/A -   """
24.97,927.1281,0.04175957, NaN, NaN, NaN,0.0347922," ""- N/A -   """
25.05,930.44,0.0418956, NaN, NaN, NaN,0.0335714," ""- N/A -   """
25.13,933.515,0.0420123, NaN, NaN, NaN,0.0396753," ""- N/A -   """
25.21,936.5906,0.0421344, NaN, NaN, NaN,0.0445584," ""- N/A -   """
25.29,940.2573,0.04227605, NaN, NaN, NaN,0.04089605," ""- N/A -   """
25.37,944.042,0.04242322, NaN, NaN, NaN,0.03601294," ""- N/A -   """
25.45,947.591,0.0425537, NaN, NaN, NaN,0.03601294," ""- N/A -   """
25.53,951.139,0.04269534, NaN, NaN, NaN,0.0323506," ""- N/A -   """
25.61,954.451,0.0428314, NaN, NaN, NaN,0.0323506," ""- N/A -   """
25.69,957.9994,0.04296468, NaN, NaN, NaN,0.03112983," ""- N/A -   """
25.77,961.3113,0.0430952, NaN, NaN, NaN,0.0323506," ""- N/A -   """
25.85,964.7414,0.0432257, NaN, NaN, NaN,0.0347922," ""- N/A -   """
25.93,967.58,0.0433451, NaN, NaN, NaN,0.04089605," ""- N/A -   """
26.01,970.5372,0.04345894, NaN, NaN, NaN,0.0482207," ""- N/A -   """
26.09,974.5587,0.0436089, NaN, NaN, NaN,0.04089605," ""- N/A -   """
26.17,978.462,0.0437588, NaN, NaN, NaN,0.0347922," ""- N/A -   """
26.25,981.892,0.0438949, NaN, NaN, NaN,0.0335714," ""- N/A -   """
26.33,985.559,0.04403373, NaN, NaN, NaN,0.03112983," ""- N/A -   """
26.41,989.107,0.0441726, NaN, NaN, NaN,0.0299091," ""- N/A -   """
26.49,992.064,0.0442892, NaN, NaN, NaN,0.03601294," ""- N/A -   """
26.57,994.9031,0.0444058, NaN, NaN, NaN,0.0433376," ""- N/A -   """
26.65,997.978,0.04452799, NaN, NaN, NaN,0.0482207," ""- N/A -   """
26.73,1002,0.0446779, NaN, NaN, NaN,0.04089605," ""- N/A -   """
26.81,1005.9,0.0448251, NaN, NaN, NaN,0.03601294," ""- N/A -   """
26.89,1009.57,0.04496394, NaN, NaN, NaN,0.0323506," ""- N/A -   """
26.97,1013.12,0.0451056, NaN, NaN, NaN,0.0286883," ""- N/A -   """
27.05,1016.58,0.0452361, NaN, NaN, NaN,0.0299091," ""- N/A -   """
27.13,1020.04,0.0453694, NaN, NaN, NaN,0.03112983," ""- N/A -   """
27.21,1022.9,0.0454804, NaN, NaN, NaN,0.0396753," ""- N/A -   """
27.29,1026,0.0456026, NaN, NaN, NaN,0.04577916," ""- N/A -   """
27.37,1029.22,0.0457248, NaN, NaN, NaN,0.05066227," ""- N/A -   """
27.45,1032.92,0.0458664, NaN, NaN, NaN,0.04577916," ""- N/A -   """
27.53,1037.33,0.04602466, NaN, NaN, NaN,0.0347922," ""- N/A -   """
27.61,1041.14,0.04617461, NaN, NaN, NaN,0.0274675," ""- N/A -   """
27.69,1044.244,0.0462968, NaN, NaN, NaN,0.0323506," ""- N/A -   """
27.77,1047.82,0.04642729, NaN, NaN, NaN,0.0335714," ""- N/A -   """
27.85,1051.28,0.0465606, NaN, NaN, NaN,0.0335714," ""- N/A -   """
27.93,1054.142,0.0466744, NaN, NaN, NaN,0.04211683," ""- N/A -   """
28.01,1057.24,0.0467966, NaN, NaN, NaN,0.04699994," ""- N/A -   """
28.09,1061.18,0.04694654, NaN, NaN, NaN,0.0396753," ""- N/A -   """
28.17,1065.471,0.04710204, NaN, NaN, NaN,0.0299091," ""- N/A -   """
28.25,1068.93,0.0472353, NaN, NaN, NaN,0.03112983," ""- N/A -   """
28.33,1071.91,0.0473575, NaN, NaN, NaN,0.0347922," ""- N/A -   """
28.41,1075.73,0.04749634, NaN, NaN, NaN,0.0323506," ""- N/A -   """
28.49,1078.95,0.04762407, NaN, NaN, NaN,0.0347922," ""- N/A -   """
28.57,1082.17,0.0477463, NaN, NaN, NaN,0.0396753," ""- N/A -   """
28.65,1085.74,0.0478795, NaN, NaN, NaN,0.0396753," ""- N/A -   """
28.73,1088.96,0.04801, NaN, NaN, NaN,0.04089605," ""- N/A -   """
28.81,1092.66,0.0481489, NaN, NaN, NaN,0.0384545," ""- N/A -   """
28.89,1096.36,0.04828494, NaN, NaN, NaN,0.0372337," ""- N/A -   """
28.97,1099.82,0.048421, NaN, NaN, NaN,0.03601294," ""- N/A -   """
29.05,1103.393,0.04855706, NaN, NaN, NaN,0.0347922," ""- N/A -   """
29.13,1106.85,0.0486959, NaN, NaN, NaN,0.0335714," ""- N/A -   """
29.21,1110.31,0.04883196, NaN, NaN, NaN,0.03112983," ""- N/A -   """
29.29,1113.29,0.0489486, NaN, NaN, NaN,0.0384545," ""- N/A -   """
29.37,1116.51,0.0490708, NaN, NaN, NaN,0.0433376," ""- N/A -   """
29.45,1119.969,0.049204, NaN, NaN, NaN,0.0445584," ""- N/A -   """
29.53,1124.26,0.0493595, NaN, NaN, NaN,0.0335714," ""- N/A -   """
29.61,1127.72,0.0494956, NaN, NaN, NaN,0.0323506," ""- N/A -   """
29.69,1131.18,0.0496289, NaN, NaN, NaN,0.0335714," ""- N/A -   """
29.77,1134.88,0.0497677, NaN, NaN, NaN,0.0299091," ""- N/A -   """
29.774,1134.99,0.04977606, NaN, NaN, NaN,0.0299091," ""- N/A -   """