File: 2_Tensile_Data/Hamel_ForceTest_Bolt7_Test6.csv
Time, Load (lb), Position (in), AxialStrain (in), TransverseStrain (in), Auxiliary (), Control Out (V), Stress (psi)
0.0, 7.90248, 0.0, NaN, NaN, NaN, -0.007935055, "- N/A -   "
0.01, 7.90248, 0.0, NaN, NaN, NaN, -6.103888E-4, "- N/A -   "
0.02, 7.90248, 0.0, NaN, NaN, NaN, 0.006714277, "- N/A -   "
0.03, 7.90248, 0.0, NaN, NaN, NaN, 0.0213636, "- N/A -   "
0.04, 8.020428, 5.553504E-6, NaN, NaN, NaN, 0.0384545, "- N/A -   "
0.05, 8.138375, 1.38838e-05, NaN, NaN, NaN, 0.0543246, "- N/A -   "
0.06, 8.37427, 2.77675e-05, NaN, NaN, NaN, 0.0689739, "- N/A -   "
0.07, 8.728113, 4.442803E-5, NaN, NaN, NaN, 0.0799609, "- N/A -   "
0.08, 9.081955, 6.94188E-5, NaN, NaN, NaN, 0.0897272, "- N/A -   "
0.09, 9.671693, 9.440956E-5, NaN, NaN, NaN, 0.09705182, "- N/A -   "
0.1, 10.1435, 0.000124954, NaN, NaN, NaN, 0.103156, "- N/A -   "
0.11, 10.73322, 1.554981E-4, NaN, NaN, NaN, 0.09705182, "- N/A -   "
0.12, 11.323, 0.000186042, NaN, NaN, NaN, 0.09094793, "- N/A -   "
0.13, 11.7947, 0.000211033, NaN, NaN, NaN, 0.0872856, "- N/A -   "
0.14, 12.2665, 2.360239E-4, NaN, NaN, NaN, 0.08362327, "- N/A -   "
0.15, 12.6204, 0.000261015, NaN, NaN, NaN, 0.0799609, "- N/A -   "
0.16, 12.9742, 0.000286005, NaN, NaN, NaN, 0.07751938, "- N/A -   "
0.17, 13.446, 0.000308219, NaN, NaN, NaN, 0.0750778, "- N/A -   "
0.18, 13.7999, 0.000330433, NaN, NaN, NaN, 0.07263627, "- N/A -   "
0.19, 14.1537, 0.000352647, NaN, NaN, NaN, 0.0701947, "- N/A -   "
0.2, 14.5075, 0.000372085, NaN, NaN, NaN, 0.06775316, "- N/A -   "
0.21, 14.9793, 0.000391522, NaN, NaN, NaN, 0.06653238, "- N/A -   "
0.22, 15.3332, 4.13736E-4, NaN, NaN, NaN, 0.0640908, "- N/A -   "
0.23, 15.687, 0.00043595, NaN, NaN, NaN, 0.06287005, "- N/A -   "
0.24, 16.0409, 4.553873E-4, NaN, NaN, NaN, 0.0604285, "- N/A -   "
0.25, 16.3947, 4.776013E-4, NaN, NaN, NaN, 0.0592077, "- N/A -   "
0.26, 16.86649, 0.000499815, NaN, NaN, NaN, 0.05676616, "- N/A -   "
0.27, 17.2203, 0.000522029, NaN, NaN, NaN, 0.0543246, "- N/A -   "
0.28, 17.5742, 5.414666E-4, NaN, NaN, NaN, 0.05188305, "- N/A -   "
0.29, 17.928, 5.636806E-4, NaN, NaN, NaN, 0.0494415, "- N/A -   "
0.3, 18.3998, 5.858946E-4, NaN, NaN, NaN, 0.04699994, "- N/A -   "
0.31, 18.6357, 6.053319E-4, NaN, NaN, NaN, 0.04577916, "- N/A -   "
0.32, 19.1075, 0.000624769, NaN, NaN, NaN, 0.0445584, "- N/A -   "
0.33, 19.3434, 0.000646983, NaN, NaN, NaN, 0.0433376, "- N/A -   "
0.34, 19.6972, 6.636437E-4, NaN, NaN, NaN, 0.04211683, "- N/A -   "
0.35, 20.05107, 6.830809E-4, NaN, NaN, NaN, 0.04211683, "- N/A -   "
0.36, 20.4049, 6.997415E-4, NaN, NaN, NaN, 0.04089605, "- N/A -   "
0.37, 20.6408, 7.191787E-4, NaN, NaN, NaN, 0.04089605, "- N/A -   "
0.38, 20.8767, 0.000735839, NaN, NaN, NaN, 0.0396753, "- N/A -   "
0.39, 21.2305, 0.0007525, NaN, NaN, NaN, 0.0396753, "- N/A -   "
0.4, 21.5844, 7.691603E-4, NaN, NaN, NaN, 0.0396753, "- N/A -   "
0.41, 21.93823, 0.000785821, NaN, NaN, NaN, 0.0396753, "- N/A -   "
0.42, 22.0562, 0.000802481, NaN, NaN, NaN, 0.0396753, "- N/A -   "
0.43, 22.528, 8.191418E-4, NaN, NaN, NaN, 0.0396753, "- N/A -   "
0.44, 22.7639, 8.358023E-4, NaN, NaN, NaN, 0.0396753, "- N/A -   "
0.5, 24.4151, 9.329886E-4, NaN, NaN, NaN, 0.04089605, "- N/A -   "
0.56, 26.4202, 0.001041282, NaN, NaN, NaN, 0.0372337, "- N/A -   "
0.62, 28.42534, 0.00115513, NaN, NaN, NaN, 0.03112983, "- N/A -   "
0.68, 30.3125, 0.00125232, NaN, NaN, NaN, 0.0323506, "- N/A -   "
0.74, 31.9638, 0.00134117, NaN, NaN, NaN, 0.0372337, "- N/A -   "
0.8, 33.73298, 0.00142725, NaN, NaN, NaN, 0.0433376, "- N/A -   "
0.86, 35.50219, 0.00151611, NaN, NaN, NaN, 0.0482207, "- N/A -   "
0.92, 37.8611, 0.00163273, NaN, NaN, NaN, 0.04089605, "- N/A -   "
0.98, 40.33803, 0.00174935, NaN, NaN, NaN, 0.0335714, "- N/A -   "
1.04, 42.3431, 0.00184654, NaN, NaN, NaN, 0.03601294, "- N/A -   "
1.1, 44.4662, 0.0019465, NaN, NaN, NaN, 0.0347922, "- N/A -   "
1.16, 46.9431, 0.00206313, NaN, NaN, NaN, 0.0286883, "- N/A -   "
1.22, 49.1841, 0.00216309, NaN, NaN, NaN, 0.0286883, "- N/A -   "
1.28, 51.1892, 0.00225472, NaN, NaN, NaN, 0.03112983, "- N/A -   "
1.34, 53.0764, 0.0023408, NaN, NaN, NaN, 0.0372337, "- N/A -   "
1.4, 55.0815, 0.00242966, NaN, NaN, NaN, 0.04211683, "- N/A -   "
1.46, 57.20452, 0.00252407, NaN, NaN, NaN, 0.0445584, "- N/A -   "
1.52, 59.4455, 0.00262681, NaN, NaN, NaN, 0.0433376, "- N/A -   "
1.58, 61.6865, 0.00272399, NaN, NaN, NaN, 0.0445584, "- N/A -   "
1.64, 64.28137, 0.00283506, NaN, NaN, NaN, 0.0396753, "- N/A -   "
1.7, 66.99416, 0.002951687, NaN, NaN, NaN, 0.0323506, "- N/A -   "
1.76, 69.35311, 0.003057204, NaN, NaN, NaN, 0.0299091, "- N/A -   "
1.82, 71.71206, 0.00315994, NaN, NaN, NaN, 0.0286883, "- N/A -   "
1.88, 73.71717, 0.0032488, NaN, NaN, NaN, 0.0335714, "- N/A -   "
1.94, 75.95817, 0.00334321, NaN, NaN, NaN, 0.0372337, "- N/A -   "
2, 78.4351, 0.00344317, NaN, NaN, NaN, 0.03601294, "- N/A -   "
2.06, 80.794, 0.00354314, NaN, NaN, NaN, 0.03601294, "- N/A -   "
2.12, 82.68118, 0.00363199, NaN, NaN, NaN, 0.04211683, "- N/A -   "
2.18, 84.92217, 0.00372362, NaN, NaN, NaN, 0.0445584, "- N/A -   "
2.24, 87.39908, 0.00382636, NaN, NaN, NaN, 0.0445584, "- N/A -   "
2.3, 90.22981, 0.00394299, NaN, NaN, NaN, 0.03601294, "- N/A -   "
2.36, 92.94261, 0.00405683, NaN, NaN, NaN, 0.0299091, "- N/A -   "
2.42, 95.18361, 0.0041568, NaN, NaN, NaN, 0.0299091, "- N/A -   "
2.48, 97.30666, 0.00424843, NaN, NaN, NaN, 0.0347922, "- N/A -   "
2.54, 99.66561, 0.004345617, NaN, NaN, NaN, 0.0347922, "- N/A -   "
2.6, 102.26, 0.004451133, NaN, NaN, NaN, 0.0323506, "- N/A -   "
2.66, 104.619, 0.004553873, NaN, NaN, NaN, 0.03112983, "- N/A -   "
2.72, 106.742, 0.004642729, NaN, NaN, NaN, 0.03601294, "- N/A -   "
2.78, 108.866, 0.00473159, NaN, NaN, NaN, 0.04089605, "- N/A -   "
2.84, 110.989, 0.004825995, NaN, NaN, NaN, 0.0433376, "- N/A -   "
2.9, 113.465, 0.004928735, NaN, NaN, NaN, 0.04211683, "- N/A -   "
2.96, 115.942, 0.005034251, NaN, NaN, NaN, 0.0396753, "- N/A -   "
3.02, 118.655, 0.00514254, NaN, NaN, NaN, 0.03601294, "- N/A -   "
3.08, 121.014, 0.005245284, NaN, NaN, NaN, 0.0347922, "- N/A -   "
3.14, 123.491, 0.005350801, NaN, NaN, NaN, 0.0323506, "- N/A -   "
3.2, 125.9679, 0.00545632, NaN, NaN, NaN, 0.0299091, "- N/A -   "
3.26, 127.973, 0.00554795, NaN, NaN, NaN, 0.0347922, "- N/A -   "
3.32, 130.332, 0.00564514, NaN, NaN, NaN, 0.0347922, "- N/A -   "
3.38, 132.455, 0.0057451, NaN, NaN, NaN, 0.0347922, "- N/A -   "
3.44, 134.932, 0.00584784, NaN, NaN, NaN, 0.0335714, "- N/A -   "
3.5, 136.937, 0.005933919, NaN, NaN, NaN, 0.0396753, "- N/A -   "
3.56, 139.06, 0.006033882, NaN, NaN, NaN, 0.04089605, "- N/A -   "
3.62, 141.419, 0.00612829, NaN, NaN, NaN, 0.0433376, "- N/A -   "
3.68, 143.66, 0.006231031, NaN, NaN, NaN, 0.04211683, "- N/A -   "
3.74, 146.3728, 0.006344878, NaN, NaN, NaN, 0.03601294, "- N/A -   "
3.8, 148.732, 0.00645317, NaN, NaN, NaN, 0.0335714, "- N/A -   "
3.86, 150.737, 0.006547581, NaN, NaN, NaN, 0.0347922, "- N/A -   "
3.92, 153.096, 0.006650321, NaN, NaN, NaN, 0.0335714, "- N/A -   "
3.98, 155.573, 0.006761391, NaN, NaN, NaN, 0.0286883, "- N/A -   "
4.04, 157.578, 0.00685858, NaN, NaN, NaN, 0.0299091, "- N/A -   "
4.1, 159.465, 0.00694466, NaN, NaN, NaN, 0.03601294, "- N/A -   "
4.16, 161.116, 0.00702796, NaN, NaN, NaN, 0.0433376, "- N/A -   "
4.22, 163.0034, 0.00711682, NaN, NaN, NaN, 0.0482207, "- N/A -   "
4.28, 165.2444, 0.00721956, NaN, NaN, NaN, 0.04699994, "- N/A -   "
4.34, 167.485, 0.00732785, NaN, NaN, NaN, 0.0433376, "- N/A -   "
4.4, 169.962, 0.0074417, NaN, NaN, NaN, 0.0372337, "- N/A -   "
4.46, 172.321, 0.00754999, NaN, NaN, NaN, 0.0335714, "- N/A -   "
4.52, 174.4443, 0.00765273, NaN, NaN, NaN, 0.0323506, "- N/A -   "
4.58, 176.6853, 0.00776102, NaN, NaN, NaN, 0.0286883, "- N/A -   "
4.64, 178.69, 0.007858207, NaN, NaN, NaN, 0.0299091, "- N/A -   "
4.7, 180.578, 0.00795262, NaN, NaN, NaN, 0.0323506, "- N/A -   "
4.76, 182.583, 0.00804425, NaN, NaN, NaN, 0.0372337, "- N/A -   "
4.82, 184.234, 0.008133106, NaN, NaN, NaN, 0.04211683, "- N/A -   "
4.88, 186.357, 0.008227516, NaN, NaN, NaN, 0.0433376, "- N/A -   "
4.94, 188.48, 0.008330256, NaN, NaN, NaN, 0.0433376, "- N/A -   "
5, 190.485, 0.008430219, NaN, NaN, NaN, 0.04211683, "- N/A -   "
5.06, 192.726, 0.00853851, NaN, NaN, NaN, 0.0384545, "- N/A -   "
5.12, 195.321, 0.00865514, NaN, NaN, NaN, 0.03112983, "- N/A -   "
5.18, 197.562, 0.00876343, NaN, NaN, NaN, 0.0286883, "- N/A -   "
5.24, 199.449, 0.008855062, NaN, NaN, NaN, 0.03112983, "- N/A -   "
5.3, 201.454, 0.008952249, NaN, NaN, NaN, 0.0323506, "- N/A -   "
5.36, 203.459, 0.009049434, NaN, NaN, NaN, 0.0347922, "- N/A -   "
5.42, 205.7, 0.009149398, NaN, NaN, NaN, 0.0335714, "- N/A -   "
5.48, 207.4696, 0.009238253, NaN, NaN, NaN, 0.0384545, "- N/A -   "
5.54, 209.239, 0.009329887, NaN, NaN, NaN, 0.04211683, "- N/A -   "
5.6, 211.244, 0.009424296, NaN, NaN, NaN, 0.0445584, "- N/A -   "
5.66, 213.367, 0.00952148, NaN, NaN, NaN, 0.04577916, "- N/A -   "
5.72, 216.08, 0.009640883, NaN, NaN, NaN, 0.0384545, "- N/A -   "
5.78, 218.4387, 0.009751952, NaN, NaN, NaN, 0.0323506, "- N/A -   "
5.84, 220.444, 0.009854692, NaN, NaN, NaN, 0.03112983, "- N/A -   "
5.9, 222.331, 0.009946325, NaN, NaN, NaN, 0.0347922, "- N/A -   "
5.96, 224.454, 0.0100435, NaN, NaN, NaN, 0.03601294, "- N/A -   "
6.02, 226.695, 0.0101518, NaN, NaN, NaN, 0.0335714, "- N/A -   "
6.08, 228.7, 0.0102462, NaN, NaN, NaN, 0.0347922, "- N/A -   "
6.14, 230.587, 0.0103406, NaN, NaN, NaN, 0.0372337, "- N/A -   "
6.2, 232.474, 0.0104323, NaN, NaN, NaN, 0.04089605, "- N/A -   "
6.26, 234.715, 0.0105322, NaN, NaN, NaN, 0.04089605, "- N/A -   "
6.32, 236.839, 0.0106377, NaN, NaN, NaN, 0.0396753, "- N/A -   "
6.38, 239.08, 0.0107405, NaN, NaN, NaN, 0.0372337, "- N/A -   "
6.44, 241.085, 0.0108404, NaN, NaN, NaN, 0.0384545, "- N/A -   "
6.5, 243.207, 0.0109376, NaN, NaN, NaN, 0.0384545, "- N/A -   "
6.56, 245.563, 0.0110459, NaN, NaN, NaN, 0.0347922, "- N/A -   "
6.62, 247.684, 0.0111487, NaN, NaN, NaN, 0.0335714, "- N/A -   "
6.68, 249.805, 0.0112542, NaN, NaN, NaN, 0.0323506, "- N/A -   "
6.74, 251.926, 0.0113486, NaN, NaN, NaN, 0.0335714, "- N/A -   "
6.8, 254.047, 0.0114541, NaN, NaN, NaN, 0.03112983, "- N/A -   "
6.86, 256.168, 0.01154851, NaN, NaN, NaN, 0.0335714, "- N/A -   "
6.92, 257.9352, 0.01163459, NaN, NaN, NaN, 0.0396753, "- N/A -   "
6.98, 259.7026, 0.011729, NaN, NaN, NaN, 0.04211683, "- N/A -   "
7.04, 261.8235, 0.0118234, NaN, NaN, NaN, 0.0445584, "- N/A -   "
7.1, 264.18, 0.0119289, NaN, NaN, NaN, 0.04211683, "- N/A -   "
7.16, 266.7722, 0.0120455, NaN, NaN, NaN, 0.0347922, "- N/A -   "
7.22, 269.011, 0.0121511, NaN, NaN, NaN, 0.0323506, "- N/A -   "
7.28, 271.014, 0.0122483, NaN, NaN, NaN, 0.0335714, "- N/A -   "
7.34, 273.253, 0.012351, NaN, NaN, NaN, 0.0335714, "- N/A -   "
7.4, 275.609, 0.0124565, NaN, NaN, NaN, 0.0299091, "- N/A -   "
7.46, 277.73, 0.0125537, NaN, NaN, NaN, 0.03112983, "- N/A -   "
7.52, 279.497, 0.01264255, NaN, NaN, NaN, 0.03601294, "- N/A -   "
7.58, 281.3826, 0.0127314, NaN, NaN, NaN, 0.04211683, "- N/A -   "
7.64, 283.15, 0.0128175, NaN, NaN, NaN, 0.04699994, "- N/A -   "
7.7, 285.624, 0.0129174, NaN, NaN, NaN, 0.04699994, "- N/A -   "
7.76, 288.217, 0.0130396, NaN, NaN, NaN, 0.0384545, "- N/A -   "
7.82, 290.4552, 0.0131479, NaN, NaN, NaN, 0.0335714, "- N/A -   "
7.88, 292.576, 0.0132451, NaN, NaN, NaN, 0.0347922, "- N/A -   "
7.94, 295.05, 0.013359, NaN, NaN, NaN, 0.0299091, "- N/A -   "
8, 297.407, 0.0134617, NaN, NaN, NaN, 0.0286883, "- N/A -   "
8.06, 299.528, 0.0135617, NaN, NaN, NaN, 0.0286883, "- N/A -   "
8.12, 301.531, 0.0136533, NaN, NaN, NaN, 0.03112983, "- N/A -   "
8.18, 303.416, 0.0137394, NaN, NaN, NaN, 0.0384545, "- N/A -   "
8.24, 305.183, 0.0138254, NaN, NaN, NaN, 0.0445584, "- N/A -   "
8.3, 307.658, 0.0139282, NaN, NaN, NaN, 0.0433376, "- N/A -   "
8.36, 309.8965, 0.0140309, NaN, NaN, NaN, 0.0433376, "- N/A -   "
8.42, 312.253, 0.0141309, NaN, NaN, NaN, 0.04211683, "- N/A -   "
8.48, 314.7274, 0.0142392, NaN, NaN, NaN, 0.0384545, "- N/A -   "
8.54, 317.4374, 0.0143586, NaN, NaN, NaN, 0.03112983, "- N/A -   "
8.6, 319.6761, 0.0144641, NaN, NaN, NaN, 0.0274675, "- N/A -   "
8.66, 321.915, 0.0145613, NaN, NaN, NaN, 0.0286883, "- N/A -   "
8.72, 323.8, 0.0146474, NaN, NaN, NaN, 0.03601294, "- N/A -   "
8.78, 326.0387, 0.0147418, NaN, NaN, NaN, 0.0372337, "- N/A -   "
8.84, 328.277, 0.0148417, NaN, NaN, NaN, 0.0372337, "- N/A -   "
8.9, 330.28, 0.0149361, NaN, NaN, NaN, 0.0396753, "- N/A -   "
8.96, 332.519, 0.01502778, NaN, NaN, NaN, 0.0433376, "- N/A -   "
9.02, 334.758, 0.015125, NaN, NaN, NaN, 0.0445584, "- N/A -   "
9.08, 337.114, 0.0152305, NaN, NaN, NaN, 0.0433376, "- N/A -   "
9.11, 338.6461, 0.0152888, NaN, NaN, NaN, 0.0384545, "- N/A -   "
9.12, 339, 0.0153082, NaN, NaN, NaN, 0.0372337, "- N/A -   "
9.13, 339.353, 0.0153304, NaN, NaN, NaN, 0.0347922, "- N/A -   "
9.16, 340.6491, 0.0153888, NaN, NaN, NaN, 0.0323506, "- N/A -   "
9.19, 341.945, 0.0154415, NaN, NaN, NaN, 0.03112983, "- N/A -   "
9.22, 343.006, 0.0154887, NaN, NaN, NaN, 0.03112983, "- N/A -   "
9.25, 344.1839, 0.0155359, NaN, NaN, NaN, 0.0323506, "- N/A -   "
9.28, 345.244, 0.0155859, NaN, NaN, NaN, 0.0323506, "- N/A -   "
9.31, 346.4226, 0.0156331, NaN, NaN, NaN, 0.0335714, "- N/A -   "
9.34, 347.483, 0.01567754, NaN, NaN, NaN, 0.03601294, "- N/A -   "
9.37, 348.6613, 0.0157331, NaN, NaN, NaN, 0.0347922, "- N/A -   "
9.4, 349.84, 0.0157831, NaN, NaN, NaN, 0.0347922, "- N/A -   "
9.43, 351.018, 0.015833, NaN, NaN, NaN, 0.0335714, "- N/A -   "
9.46, 352.3139, 0.0158886, NaN, NaN, NaN, 0.0323506, "- N/A -   "
9.49, 353.4922, 0.0159358, NaN, NaN, NaN, 0.0323506, "- N/A -   "
9.52, 354.5526, 0.015983, NaN, NaN, NaN, 0.0335714, "- N/A -   "
9.55, 355.4952, 0.0160274, NaN, NaN, NaN, 0.03601294, "- N/A -   "
9.58, 356.438, 0.01607184, NaN, NaN, NaN, 0.0396753, "- N/A -   "
9.61, 357.6161, 0.016119, NaN, NaN, NaN, 0.04089605, "- N/A -   "
9.64, 358.6765, 0.01616625, NaN, NaN, NaN, 0.04089605, "- N/A -   "
9.67, 359.8548, 0.01621623, NaN, NaN, NaN, 0.04089605, "- N/A -   "
9.7, 361.151, 0.01626899, NaN, NaN, NaN, 0.0396753, "- N/A -   "
9.73, 362.2113, 0.0163217, NaN, NaN, NaN, 0.0396753, "- N/A -   "
9.76, 363.5074, 0.0163745, NaN, NaN, NaN, 0.0384545, "- N/A -   "
9.79, 364.9213, 0.0164245, NaN, NaN, NaN, 0.0372337, "- N/A -   "
9.82, 365.982, 0.0164772, NaN, NaN, NaN, 0.0372337, "- N/A -   "
9.85, 367.16, 0.01652445, NaN, NaN, NaN, 0.0372337, "- N/A -   "
9.88, 368.338, 0.0165744, NaN, NaN, NaN, 0.0372337, "- N/A -   "
9.91, 369.517, 0.0166244, NaN, NaN, NaN, 0.0372337, "- N/A -   "
9.94, 370.695, 0.0166744, NaN, NaN, NaN, 0.0372337, "- N/A -   "
9.97, 371.991, 0.0167327, NaN, NaN, NaN, 0.0347922, "- N/A -   "
10, 373.169, 0.0167855, NaN, NaN, NaN, 0.0335714, "- N/A -   "
10.03, 374.347, 0.0168354, NaN, NaN, NaN, 0.0335714, "- N/A -   "
10.06, 375.526, 0.01688265, NaN, NaN, NaN, 0.0347922, "- N/A -   "
10.09, 376.5861, 0.0169299, NaN, NaN, NaN, 0.03601294, "- N/A -   "
10.12, 377.6465, 0.01697706, NaN, NaN, NaN, 0.0372337, "- N/A -   "
10.15, 378.9426, 0.017027, NaN, NaN, NaN, 0.03601294, "- N/A -   "
10.18, 380.2387, 0.0170798, NaN, NaN, NaN, 0.0347922, "- N/A -   "
10.21, 381.299, 0.01713256, NaN, NaN, NaN, 0.0335714, "- N/A -   "
10.24, 382.5952, 0.01718254, NaN, NaN, NaN, 0.0335714, "- N/A -   "
10.27, 383.538, 0.017227, NaN, NaN, NaN, 0.0372337, "- N/A -   "
10.3, 384.716, 0.0172742, NaN, NaN, NaN, 0.0372337, "- N/A -   "
10.33, 385.777, 0.0173214, NaN, NaN, NaN, 0.0384545, "- N/A -   "
10.36, 386.955, 0.0173686, NaN, NaN, NaN, 0.0396753, "- N/A -   "
10.39, 388.133, 0.0174186, NaN, NaN, NaN, 0.0396753, "- N/A -   "
10.42, 389.193, 0.017463, NaN, NaN, NaN, 0.04211683, "- N/A -   "
10.45, 390.372, 0.0175102, NaN, NaN, NaN, 0.0433376, "- N/A -   "
10.48, 391.4322, 0.017563, NaN, NaN, NaN, 0.04211683, "- N/A -   "
10.51, 392.8461, 0.0176157, NaN, NaN, NaN, 0.04089605, "- N/A -   "
10.54, 394.142, 0.0176712, NaN, NaN, NaN, 0.0384545, "- N/A -   "
10.57, 395.438, 0.0177268, NaN, NaN, NaN, 0.03601294, "- N/A -   "
10.6, 396.734, 0.0177823, NaN, NaN, NaN, 0.0335714, "- N/A -   "
10.63, 397.9126, 0.0178295, NaN, NaN, NaN, 0.0347922, "- N/A -   "
10.66, 398.973, 0.0178795, NaN, NaN, NaN, 0.0347922, "- N/A -   "
10.69, 400.269, 0.0179323, NaN, NaN, NaN, 0.0347922, "- N/A -   "
10.72, 401.447, 0.0179795, NaN, NaN, NaN, 0.0347922, "- N/A -   "
10.75, 402.626, 0.018035, NaN, NaN, NaN, 0.0335714, "- N/A -   "
10.78, 404.04, 0.0180905, NaN, NaN, NaN, 0.0299091, "- N/A -   "
10.81, 405.336, 0.0181433, NaN, NaN, NaN, 0.0286883, "- N/A -   "
10.84, 406.514, 0.0181961, NaN, NaN, NaN, 0.0286883, "- N/A -   "
10.87, 407.692, 0.0182433, NaN, NaN, NaN, 0.0299091, "- N/A -   "
10.9, 408.7526, 0.0182905, NaN, NaN, NaN, 0.0299091, "- N/A -   "
10.93, 409.695, 0.0183321, NaN, NaN, NaN, 0.0335714, "- N/A -   "
10.96, 410.638, 0.0183738, NaN, NaN, NaN, 0.0372337, "- N/A -   "
10.99, 411.58, 0.0184154, NaN, NaN, NaN, 0.04089605, "- N/A -   "
11.02, 412.7587, 0.0184654, NaN, NaN, NaN, 0.04211683, "- N/A -   "
11.05, 413.819, 0.01850705, NaN, NaN, NaN, 0.0445584, "- N/A -   "
11.08, 414.997, 0.018557, NaN, NaN, NaN, 0.04577916, "- N/A -   "
11.11, 416.2935, 0.018607, NaN, NaN, NaN, 0.04577916, "- N/A -   "
11.14, 417.7074, 0.0186625, NaN, NaN, NaN, 0.04211683, "- N/A -   "
11.17, 419.003, 0.0187181, NaN, NaN, NaN, 0.0396753, "- N/A -   "
[...]
29.36, 1221.21, 0.0490402, NaN, NaN, NaN, 0.0372337, "- N/A -   "
29.43, 1223.96, 0.049143, NaN, NaN, NaN, 0.0433376, "- N/A -   "
29.5, 1226.938, 0.049254, NaN, NaN, NaN, 0.04577916, "- N/A -   "
29.57, 1230.75, 0.0493901, NaN, NaN, NaN, 0.0384545, "- N/A -   "
29.64, 1234.45, 0.0495206, NaN, NaN, NaN, 0.03112983, "- N/A -   "
29.71, 1237.91, 0.04964, NaN, NaN, NaN, 0.0299091, "- N/A -   "
29.78, 1240.77, 0.0497483, NaN, NaN, NaN, 0.0335714, "- N/A -   "
29.85, 1243.87, 0.04986213, NaN, NaN, NaN, 0.0347922, "- N/A -   "
29.92, 1247.21, 0.0499843, NaN, NaN, NaN, 0.0323506, "- N/A -   "
29.99, 1250.31, 0.0500982, NaN, NaN, NaN, 0.0335714, "- N/A -   "
30.06, 1253.05, 0.0502009, NaN, NaN, NaN, 0.0396753, "- N/A -   "
30.13, 1256.274, 0.0503147, NaN, NaN, NaN, 0.04211683, "- N/A -   "
30.2, 1259.61, 0.05043692, NaN, NaN, NaN, 0.0396753, "- N/A -   "
30.27, 1262.952, 0.05055632, NaN, NaN, NaN, 0.0372337, "- N/A -   "
30.34, 1266.172, 0.0506757, NaN, NaN, NaN, 0.0372337, "- N/A -   "
30.41, 1269.51, 0.0507951, NaN, NaN, NaN, 0.0347922, "- N/A -   "
30.48, 1272.97, 0.0509201, NaN, NaN, NaN, 0.0323506, "- N/A -   "
30.55, 1275.83, 0.05102837, NaN, NaN, NaN, 0.0347922, "- N/A -   "
30.62, 1279.05, 0.05114777, NaN, NaN, NaN, 0.0335714, "- N/A -   "
30.69, 1282.27, 0.05126439, NaN, NaN, NaN, 0.0335714, "- N/A -   "
30.76, 1285.133, 0.0513699, NaN, NaN, NaN, 0.0384545, "- N/A -   "
30.83, 1288.23, 0.0514838, NaN, NaN, NaN, 0.04089605, "- N/A -   "
30.9, 1291.33, 0.0515948, NaN, NaN, NaN, 0.0433376, "- N/A -   "
30.97, 1294.67, 0.05171978, NaN, NaN, NaN, 0.04089605, "- N/A -   "
31.04, 1298.37, 0.0518503, NaN, NaN, NaN, 0.0335714, "- N/A -   "
31.11, 1301.709, 0.05196969, NaN, NaN, NaN, 0.0323506, "- N/A -   "
31.18, 1304.571, 0.05208076, NaN, NaN, NaN, 0.0347922, "- N/A -   "
31.25, 1308.03, 0.0522057, NaN, NaN, NaN, 0.03112983, "- N/A -   "
31.32, 1311.25, 0.0523223, NaN, NaN, NaN, 0.03112983, "- N/A -   "
31.39, 1314.23, 0.0524334, NaN, NaN, NaN, 0.0335714, "- N/A -   "
31.46, 1316.854, 0.0525361, NaN, NaN, NaN, 0.0396753, "- N/A -   "
31.53, 1319.48, 0.05263333, NaN, NaN, NaN, 0.0482207, "- N/A -   "
31.6, 1322.7, 0.05275551, NaN, NaN, NaN, 0.04699994, "- N/A -   "
31.67, 1326.51, 0.0528888, NaN, NaN, NaN, 0.0384545, "- N/A -   "
31.74, 1329.97, 0.0530165, NaN, NaN, NaN, 0.0347922, "- N/A -   "
31.81, 1333.19, 0.0531359, NaN, NaN, NaN, 0.0323506, "- N/A -   "
31.88, 1336.53, 0.0532581, NaN, NaN, NaN, 0.0299091, "- N/A -   "
31.95, 1339.75, 0.0533775, NaN, NaN, NaN, 0.0299091, "- N/A -   "
32.02, 1342.49, 0.05348302, NaN, NaN, NaN, 0.0335714, "- N/A -   "
32.09, 1345.12, 0.05358298, NaN, NaN, NaN, 0.04089605, "- N/A -   "
32.16, 1348.098, 0.0536885, NaN, NaN, NaN, 0.04577916, "- N/A -   "
32.23, 1351.32, 0.0538079, NaN, NaN, NaN, 0.0445584, "- N/A -   "
32.3, 1354.9, 0.0539384, NaN, NaN, NaN, 0.0384545, "- N/A -   "
32.37, 1358.35, 0.0540661, NaN, NaN, NaN, 0.0347922, "- N/A -   "
32.44, 1362.17, 0.05419664, NaN, NaN, NaN, 0.0274675, "- N/A -   "
32.51, 1364.91, 0.05430771, NaN, NaN, NaN, 0.03112983, "- N/A -   "
32.58, 1367.89, 0.054416, NaN, NaN, NaN, 0.0335714, "- N/A -   "
32.65, 1370.88, 0.0545243, NaN, NaN, NaN, 0.0372337, "- N/A -   "
32.72, 1373.98, 0.05464092, NaN, NaN, NaN, 0.0372337, "- N/A -   "
32.79, 1377.31, 0.0547631, NaN, NaN, NaN, 0.0347922, "- N/A -   "
32.86, 1379.94, 0.05486306, NaN, NaN, NaN, 0.04211683, "- N/A -   "
32.93, 1382.92, 0.0549714, NaN, NaN, NaN, 0.04577916, "- N/A -   "
33, 1386.62, 0.05510464, NaN, NaN, NaN, 0.0384545, "- N/A -   "
33.07, 1390.31, 0.0552379, NaN, NaN, NaN, 0.0323506, "- N/A -   "
33.14, 1393.41, 0.0553518, NaN, NaN, NaN, 0.0323506, "- N/A -   "
33.21, 1396.4, 0.05546284, NaN, NaN, NaN, 0.0347922, "- N/A -   "
33.28, 1399.73, 0.055585, NaN, NaN, NaN, 0.0323506, "- N/A -   "
33.35, 1402.83, 0.0557044, NaN, NaN, NaN, 0.03112983, "- N/A -   "
33.42, 1405.816, 0.0558127, NaN, NaN, NaN, 0.0347922, "- N/A -   "
33.49, 1408.56, 0.0559155, NaN, NaN, NaN, 0.04089605, "- N/A -   "
33.56, 1411.66, 0.0560321, NaN, NaN, NaN, 0.04089605, "- N/A -   "
33.63, 1414.88, 0.0561515, NaN, NaN, NaN, 0.0396753, "- N/A -   "
33.7, 1418.34, 0.0562737, NaN, NaN, NaN, 0.0384545, "- N/A -   "
33.77, 1421.438, 0.0563931, NaN, NaN, NaN, 0.0372337, "- N/A -   "
33.84, 1424.66, 0.0565125, NaN, NaN, NaN, 0.0347922, "- N/A -   "
33.91, 1428.12, 0.0566374, NaN, NaN, NaN, 0.03112983, "- N/A -   "
33.98, 1431.46, 0.056754, NaN, NaN, NaN, 0.03112983, "- N/A -   "
34.05, 1434.32, 0.0568651, NaN, NaN, NaN, 0.0335714, "- N/A -   "
34.12, 1437.537, 0.0569845, NaN, NaN, NaN, 0.0323506, "- N/A -   "
34.19, 1440.28, 0.05709, NaN, NaN, NaN, 0.0372337, "- N/A -   "
34.26, 1443.02, 0.0571955, NaN, NaN, NaN, 0.04211683, "- N/A -   "
34.33, 1446, 0.0573011, NaN, NaN, NaN, 0.04699994, "- N/A -   "
34.4, 1449.34, 0.057426, NaN, NaN, NaN, 0.0433376, "- N/A -   "
34.47, 1452.92, 0.05755929, NaN, NaN, NaN, 0.03601294, "- N/A -   "
34.54, 1456.38, 0.0576815, NaN, NaN, NaN, 0.0335714, "- N/A -   "
34.61, 1459.48, 0.05779809, NaN, NaN, NaN, 0.0335714, "- N/A -   "
34.68, 1463.057, 0.05793137, NaN, NaN, NaN, 0.0262467, "- N/A -   "
34.75, 1466.16, 0.0580424, NaN, NaN, NaN, 0.0286883, "- N/A -   "
34.82, 1468.66, 0.0581452, NaN, NaN, NaN, 0.0347922, "- N/A -   "
34.89, 1471.166, 0.05824237, NaN, NaN, NaN, 0.0433376, "- N/A -   "
34.96, 1474.03, 0.05834789, NaN, NaN, NaN, 0.0482207, "- N/A -   "
35.03, 1477.72, 0.0584784, NaN, NaN, NaN, 0.04211683, "- N/A -   "
35.1, 1481.42, 0.0586117, NaN, NaN, NaN, 0.0347922, "- N/A -   "
35.17, 1484.64, 0.0587311, NaN, NaN, NaN, 0.0335714, "- N/A -   "
35.24, 1487.98, 0.0588533, NaN, NaN, NaN, 0.03112983, "- N/A -   "
35.31, 1491.2, 0.0589754, NaN, NaN, NaN, 0.03112983, "- N/A -   "
35.38, 1494.42, 0.0590921, NaN, NaN, NaN, 0.0299091, "- N/A -   "
35.45, 1497.04, 0.0591948, NaN, NaN, NaN, 0.0372337, "- N/A -   "
35.52, 1499.79, 0.05929753, NaN, NaN, NaN, 0.04211683, "- N/A -   "
35.59, 1502.77, 0.0594114, NaN, NaN, NaN, 0.0433376, "- N/A -   "
35.66, 1505.749, 0.0595225, NaN, NaN, NaN, 0.04699994, "- N/A -   "
35.73, 1509.09, 0.05964463, NaN, NaN, NaN, 0.0433376, "- N/A -   "
35.8, 1512.785, 0.0597835, NaN, NaN, NaN, 0.0347922, "- N/A -   "
35.87, 1516.36, 0.0599112, NaN, NaN, NaN, 0.0286883, "- N/A -   "
35.94, 1519.22, 0.06002227, NaN, NaN, NaN, 0.03112983, "- N/A -   "
36.01, 1522.09, 0.0601306, NaN, NaN, NaN, 0.0347922, "- N/A -   "
36.08, 1525.19, 0.0602444, NaN, NaN, NaN, 0.03601294, "- N/A -   "
36.15, 1528.29, 0.0603638, NaN, NaN, NaN, 0.03601294, "- N/A -   "
36.22, 1531.15, 0.0604693, NaN, NaN, NaN, 0.0396753, "- N/A -   "
36.29, 1533.77, 0.0605721, NaN, NaN, NaN, 0.04577916, "- N/A -   "
36.36, 1536.99, 0.0606915, NaN, NaN, NaN, 0.04577916, "- N/A -   "
36.43, 1540.81, 0.0608331, NaN, NaN, NaN, 0.0347922, "- N/A -   "
36.5, 1544.15, 0.0609553, NaN, NaN, NaN, 0.03112983, "- N/A -   "
36.57, 1547.13, 0.0610663, NaN, NaN, NaN, 0.0347922, "- N/A -   "
36.64, 1549.99, 0.06117462, NaN, NaN, NaN, 0.0372337, "- N/A -   "
36.71, 1553.45, 0.0612996, NaN, NaN, NaN, 0.0335714, "- N/A -   "
36.78, 1556.43, 0.0614162, NaN, NaN, NaN, 0.0347922, "- N/A -   "
36.85, 1559.29, 0.06152449, NaN, NaN, NaN, 0.0372337, "- N/A -   "
36.92, 1562.16, 0.0616328, NaN, NaN, NaN, 0.04211683, "- N/A -   "
36.99, 1565.38, 0.06175496, NaN, NaN, NaN, 0.0384545, "- N/A -   "
37.06, 1568.48, 0.06186603, NaN, NaN, NaN, 0.04089605, "- N/A -   "
37.13, 1571.7, 0.06198821, NaN, NaN, NaN, 0.0384545, "- N/A -   "
37.2, 1574.92, 0.0621132, NaN, NaN, NaN, 0.03601294, "- N/A -   "
37.27, 1578.02, 0.06222701, NaN, NaN, NaN, 0.03601294, "- N/A -   "
37.34, 1581.24, 0.06234641, NaN, NaN, NaN, 0.0347922, "- N/A -   "
37.41, 1584.22, 0.06246303, NaN, NaN, NaN, 0.0347922, "- N/A -   "
37.48, 1587.44, 0.0625852, NaN, NaN, NaN, 0.0335714, "- N/A -   "
37.55, 1590.42, 0.06269906, NaN, NaN, NaN, 0.0335714, "- N/A -   "
37.62, 1593.16, 0.06280179, NaN, NaN, NaN, 0.0396753, "- N/A -   "
37.69, 1596.02, 0.06291287, NaN, NaN, NaN, 0.04211683, "- N/A -   "
37.76, 1599.12, 0.06302672, NaN, NaN, NaN, 0.0445584, "- N/A -   "
37.83, 1602.58, 0.0631544, NaN, NaN, NaN, 0.0384545, "- N/A -   "
37.9, 1605.92, 0.06328218, NaN, NaN, NaN, 0.0335714, "- N/A -   "
37.97, 1609.14, 0.06340158, NaN, NaN, NaN, 0.0323506, "- N/A -   "
38.04, 1612.24, 0.0635182, NaN, NaN, NaN, 0.0323506, "- N/A -   "
38.11, 1615.58, 0.06364315, NaN, NaN, NaN, 0.0286883, "- N/A -   "
38.18, 1618.44, 0.06375422, NaN, NaN, NaN, 0.03112983, "- N/A -   "
38.25, 1621.07, 0.06385974, NaN, NaN, NaN, 0.03601294, "- N/A -   "
38.32, 1623.69, 0.0639597, NaN, NaN, NaN, 0.0433376, "- N/A -   "
38.388, 1626.43, 0.064068, NaN, NaN, NaN, 0.04577916, "- N/A -   "