File: 2_Tensile_Data/Hamel_ForceTest_Bolt4_Test9.csv
Time, Load (lb), Position (in), AxialStrain (in), TransverseStrain (in), Auxiliary (), Control Out (V), Stress (psi)
0.0, 11.0871, 0.0, NaN, NaN, NaN, -0.007935055, "- N/A -   "
0.01, 11.0871, 0.0, NaN, NaN, NaN, -6.103888E-4, "- N/A -   "
0.02, 11.205, 0.0, NaN, NaN, NaN, 0.0115974, "- N/A -   "
0.03, 11.205, 0.0, NaN, NaN, NaN, 0.03112983, "- N/A -   "
0.04, 11.323, 8.330256E-6, NaN, NaN, NaN, 0.0482207, "- N/A -   "
0.05, 11.4409, 2.2214e-05, NaN, NaN, NaN, 0.06164927, "- N/A -   "
0.06, 11.6768, 3.60978e-05, NaN, NaN, NaN, 0.07385705, "- N/A -   "
0.07, 12.14859, 5.83118e-05, NaN, NaN, NaN, 0.084844, "- N/A -   "
0.08, 12.5024, 8.33026e-05, NaN, NaN, NaN, 0.09216871, "- N/A -   "
0.09, 12.8563, 0.000113847, NaN, NaN, NaN, 0.09949338, "- N/A -   "
0.1, 13.3281, 0.000144391, NaN, NaN, NaN, 0.103156, "- N/A -   "
0.11, 13.9178, 0.000174935, NaN, NaN, NaN, 0.095831, "- N/A -   "
0.12, 14.3896, 0.000208256, NaN, NaN, NaN, 0.0897272, "- N/A -   "
0.13, 14.9793, 2.360239E-4, NaN, NaN, NaN, 0.08362327, "- N/A -   "
0.14, 15.3332, 0.000263791, NaN, NaN, NaN, 0.07874016, "- N/A -   "
0.15, 15.687, 0.000288782, NaN, NaN, NaN, 0.0762986, "- N/A -   "
0.16, 16.0409, 3.109962E-4, NaN, NaN, NaN, 0.07385705, "- N/A -   "
0.17, 16.3947, 0.000330433, NaN, NaN, NaN, 0.07141549, "- N/A -   "
0.18, 16.6306, 0.000349871, NaN, NaN, NaN, 0.0701947, "- N/A -   "
0.19, 16.9844, 0.000366531, NaN, NaN, NaN, 0.0701947, "- N/A -   "
0.2, 17.2203, 3.859685E-4, NaN, NaN, NaN, 0.0689739, "- N/A -   "
0.21, 17.5742, 0.000405406, NaN, NaN, NaN, 0.0689739, "- N/A -   "
0.22, 17.8101, 0.000422066, NaN, NaN, NaN, 0.06775316, "- N/A -   "
0.23, 18.046, 0.000441504, NaN, NaN, NaN, 0.06653238, "- N/A -   "
0.24, 18.2819, 4.609408E-4, NaN, NaN, NaN, 0.0653116, "- N/A -   "
0.25, 18.6357, 4.776013E-4, NaN, NaN, NaN, 0.0653116, "- N/A -   "
0.26, 18.8716, 4.970386E-4, NaN, NaN, NaN, 0.0640908, "- N/A -   "
0.27, 19.1075, 5.164758E-4, NaN, NaN, NaN, 0.0640908, "- N/A -   "
0.28, 19.4613, 5.359131E-4, NaN, NaN, NaN, 0.06287005, "- N/A -   "
0.29, 19.6972, 5.553504E-4, NaN, NaN, NaN, 0.0604285, "- N/A -   "
0.3, 20.05107, 0.000577564, NaN, NaN, NaN, 0.0592077, "- N/A -   "
0.31, 20.4049, 5.997784E-4, NaN, NaN, NaN, 0.05676616, "- N/A -   "
0.32, 20.7588, 0.000619216, NaN, NaN, NaN, 0.0543246, "- N/A -   "
0.33, 20.99465, 6.414297E-4, NaN, NaN, NaN, 0.05188305, "- N/A -   "
0.34, 21.3485, 6.636437E-4, NaN, NaN, NaN, 0.0494415, "- N/A -   "
0.35, 21.7023, 6.858577E-4, NaN, NaN, NaN, 0.0482207, "- N/A -   "
0.36, 21.93823, 7.025182E-4, NaN, NaN, NaN, 0.04699994, "- N/A -   "
0.37, 22.1741, 7.219555E-4, NaN, NaN, NaN, 0.04577916, "- N/A -   "
0.38, 22.41, 7.413927E-4, NaN, NaN, NaN, 0.0445584, "- N/A -   "
0.39, 22.6459, 7.6083E-4, NaN, NaN, NaN, 0.0433376, "- N/A -   "
0.4, 22.9998, 0.000780267, NaN, NaN, NaN, 0.04211683, "- N/A -   "
0.41, 23.2357, 7.997045E-4, NaN, NaN, NaN, 0.04089605, "- N/A -   "
0.42, 23.4715, 8.191418E-4, NaN, NaN, NaN, 0.0396753, "- N/A -   "
0.43, 23.7074, 8.38579E-4, NaN, NaN, NaN, 0.0384545, "- N/A -   "
0.44, 23.9433, 8.552396E-4, NaN, NaN, NaN, 0.0384545, "- N/A -   "
0.45, 24.0613, 0.0008719, NaN, NaN, NaN, 0.0384545, "- N/A -   "
0.46, 24.4151, 8.885606E-4, NaN, NaN, NaN, 0.0384545, "- N/A -   "
0.47, 24.65102, 9.052211E-4, NaN, NaN, NaN, 0.0384545, "- N/A -   "
0.48, 24.769, 9.246584E-4, NaN, NaN, NaN, 0.0372337, "- N/A -   "
0.49, 25.1228, 9.440956E-4, NaN, NaN, NaN, 0.03601294, "- N/A -   "
0.5, 25.3587, 9.663096E-4, NaN, NaN, NaN, 0.0347922, "- N/A -   "
0.51, 25.7125, 9.857469E-4, NaN, NaN, NaN, 0.0323506, "- N/A -   "
0.55, 26.5382, 0.00105794, NaN, NaN, NaN, 0.0299091, "- N/A -   "
0.59, 27.4818, 0.00112181, NaN, NaN, NaN, 0.03112983, "- N/A -   "
0.63, 28.3074, 0.0011829, NaN, NaN, NaN, 0.0335714, "- N/A -   "
0.67, 29.133, 0.00124676, NaN, NaN, NaN, 0.0347922, "- N/A -   "
0.71, 29.9587, 0.0013134, NaN, NaN, NaN, 0.0347922, "- N/A -   "
0.75, 30.6663, 0.00137172, NaN, NaN, NaN, 0.0396753, "- N/A -   "
0.79, 31.492, 0.00143003, NaN, NaN, NaN, 0.0433376, "- N/A -   "
0.83, 32.4356, 0.00149389, NaN, NaN, NaN, 0.0433376, "- N/A -   "
0.87, 33.1432, 0.00156053, NaN, NaN, NaN, 0.0433376, "- N/A -   "
0.91, 33.9689, 0.00162718, NaN, NaN, NaN, 0.0445584, "- N/A -   "
0.95, 34.7945, 0.00169104, NaN, NaN, NaN, 0.04577916, "- N/A -   "
0.99, 35.85603, 0.00176324, NaN, NaN, NaN, 0.0433376, "- N/A -   "
1.03, 36.79961, 0.001835433, NaN, NaN, NaN, 0.0396753, "- N/A -   "
1.07, 37.74319, 0.00191874, NaN, NaN, NaN, 0.0323506, "- N/A -   "
1.11, 38.68677, 0.00199648, NaN, NaN, NaN, 0.0274675, "- N/A -   "
1.15, 39.3945, 0.0020659, NaN, NaN, NaN, 0.0274675, "- N/A -   "
1.19, 40.22009, 0.00212977, NaN, NaN, NaN, 0.0274675, "- N/A -   "
1.23, 40.9278, 0.00219641, NaN, NaN, NaN, 0.0274675, "- N/A -   "
1.27, 41.6355, 0.0022575, NaN, NaN, NaN, 0.0299091, "- N/A -   "
1.31, 42.3431, 0.00232136, NaN, NaN, NaN, 0.0323506, "- N/A -   "
1.35, 43.1688, 0.00237968, NaN, NaN, NaN, 0.0347922, "- N/A -   "
1.39, 43.9944, 0.00244632, NaN, NaN, NaN, 0.0347922, "- N/A -   "
1.43, 44.70209, 0.00251296, NaN, NaN, NaN, 0.03601294, "- N/A -   "
1.47, 45.5277, 0.00257405, NaN, NaN, NaN, 0.0372337, "- N/A -   "
1.51, 46.3534, 0.00263236, NaN, NaN, NaN, 0.04089605, "- N/A -   "
1.55, 47.061, 0.00269345, NaN, NaN, NaN, 0.0445584, "- N/A -   "
1.59, 47.8867, 0.002751761, NaN, NaN, NaN, 0.04699994, "- N/A -   "
1.63, 48.7123, 0.00281563, NaN, NaN, NaN, 0.0482207, "- N/A -   "
1.67, 49.7738, 0.00289338, NaN, NaN, NaN, 0.0433376, "- N/A -   "
1.71, 51.0713, 0.0029739, NaN, NaN, NaN, 0.0372337, "- N/A -   "
1.75, 52.01483, 0.00304887, NaN, NaN, NaN, 0.0335714, "- N/A -   "
1.79, 52.9584, 0.00311829, NaN, NaN, NaN, 0.0323506, "- N/A -   "
1.83, 53.784, 0.00318216, NaN, NaN, NaN, 0.0347922, "- N/A -   "
1.87, 54.7276, 0.003243246, NaN, NaN, NaN, 0.03601294, "- N/A -   "
1.91, 55.6712, 0.003309888, NaN, NaN, NaN, 0.03601294, "- N/A -   "
1.95, 56.6148, 0.00337653, NaN, NaN, NaN, 0.03601294, "- N/A -   "
1.99, 57.79426, 0.00344873, NaN, NaN, NaN, 0.0347922, "- N/A -   "
2.03, 58.8558, 0.00351537, NaN, NaN, NaN, 0.0335714, "- N/A -   "
2.07, 59.9173, 0.00358479, NaN, NaN, NaN, 0.0323506, "- N/A -   "
2.11, 60.7429, 0.00364865, NaN, NaN, NaN, 0.0335714, "- N/A -   "
2.15, 61.6865, 0.00370696, NaN, NaN, NaN, 0.0372337, "- N/A -   "
2.19, 62.7481, 0.003770829, NaN, NaN, NaN, 0.0396753, "- N/A -   "
2.23, 63.80958, 0.00384302, NaN, NaN, NaN, 0.0372337, "- N/A -   "
2.27, 64.75317, 0.00390689, NaN, NaN, NaN, 0.0372337, "- N/A -   "
2.31, 65.69674, 0.00396798, NaN, NaN, NaN, 0.0396753, "- N/A -   "
2.35, 66.87622, 0.004040174, NaN, NaN, NaN, 0.0384545, "- N/A -   "
2.39, 68.05569, 0.00410959, NaN, NaN, NaN, 0.03601294, "- N/A -   "
2.43, 69.23517, 0.004176235, NaN, NaN, NaN, 0.03601294, "- N/A -   "
2.47, 70.29669, 0.00424288, NaN, NaN, NaN, 0.03601294, "- N/A -   "
2.51, 71.4762, 0.00430952, NaN, NaN, NaN, 0.03601294, "- N/A -   "
2.55, 72.65564, 0.004384491, NaN, NaN, NaN, 0.0335714, "- N/A -   "
2.59, 73.71717, 0.00445391, NaN, NaN, NaN, 0.03112983, "- N/A -   "
2.63, 74.7787, 0.00451778, NaN, NaN, NaN, 0.0323506, "- N/A -   "
2.67, 75.95817, 0.00458164, NaN, NaN, NaN, 0.0335714, "- N/A -   "
2.71, 77.25559, 0.00464828, NaN, NaN, NaN, 0.0335714, "- N/A -   "
2.75, 78.31712, 0.0047177, NaN, NaN, NaN, 0.0323506, "- N/A -   "
2.79, 79.61454, 0.00478434, NaN, NaN, NaN, 0.0323506, "- N/A -   "
2.83, 80.67606, 0.00484821, NaN, NaN, NaN, 0.0335714, "- N/A -   "
2.87, 81.61965, 0.00490652, NaN, NaN, NaN, 0.0372337, "- N/A -   "
2.91, 82.68118, 0.004967609, NaN, NaN, NaN, 0.0396753, "- N/A -   "
2.95, 83.74271, 0.005031475, NaN, NaN, NaN, 0.04211683, "- N/A -   "
2.99, 84.80424, 0.005092563, NaN, NaN, NaN, 0.0433376, "- N/A -   "
3.03, 86.1017, 0.00515643, NaN, NaN, NaN, 0.0445584, "- N/A -   "
3.07, 87.39908, 0.005225847, NaN, NaN, NaN, 0.0433376, "- N/A -   "
3.11, 88.8144, 0.00530082, NaN, NaN, NaN, 0.0396753, "- N/A -   "
3.15, 90.34776, 0.00537857, NaN, NaN, NaN, 0.03601294, "- N/A -   "
3.19, 91.52724, 0.00544521, NaN, NaN, NaN, 0.0347922, "- N/A -   "
3.23, 92.82466, 0.005511852, NaN, NaN, NaN, 0.03601294, "- N/A -   "
3.27, 93.8862, 0.005578494, NaN, NaN, NaN, 0.0347922, "- N/A -   "
3.31, 95.41951, 0.005645136, NaN, NaN, NaN, 0.0347922, "- N/A -   "
3.35, 96.83487, 0.005720109, NaN, NaN, NaN, 0.0323506, "- N/A -   "
3.39, 98.2502, 0.005792304, NaN, NaN, NaN, 0.0286883, "- N/A -   "
3.43, 99.42972, 0.00585617, NaN, NaN, NaN, 0.0299091, "- N/A -   "
3.47, 100.491, 0.005917258, NaN, NaN, NaN, 0.0335714, "- N/A -   "
3.51, 101.789, 0.00597835, NaN, NaN, NaN, 0.0347922, "- N/A -   "
3.55, 102.85, 0.006033882, NaN, NaN, NaN, 0.0396753, "- N/A -   "
3.59, 103.912, 0.00609219, NaN, NaN, NaN, 0.0445584, "- N/A -   "
3.63, 105.209, 0.00615884, NaN, NaN, NaN, 0.04577916, "- N/A -   "
3.67, 106.625, 0.0062227, NaN, NaN, NaN, 0.04699994, "- N/A -   "
3.71, 108.158, 0.0062949, NaN, NaN, NaN, 0.0433376, "- N/A -   "
3.75, 109.691, 0.00636987, NaN, NaN, NaN, 0.0396753, "- N/A -   "
3.79, 111.224, 0.00644484, NaN, NaN, NaN, 0.0372337, "- N/A -   "
3.83, 112.758, 0.00651704, NaN, NaN, NaN, 0.0335714, "- N/A -   "
3.87, 114.173, 0.00658368, NaN, NaN, NaN, 0.0335714, "- N/A -   "
3.91, 115.471, 0.006653098, NaN, NaN, NaN, 0.0323506, "- N/A -   "
3.95, 117.004, 0.00672529, NaN, NaN, NaN, 0.0299091, "- N/A -   "
3.99, 118.419, 0.006794712, NaN, NaN, NaN, 0.0299091, "- N/A -   "
4.03, 119.717, 0.00685858, NaN, NaN, NaN, 0.0299091, "- N/A -   "
4.07, 121.132, 0.00692522, NaN, NaN, NaN, 0.0299091, "- N/A -   "
4.11, 122.429, 0.006986308, NaN, NaN, NaN, 0.0323506, "- N/A -   "
4.15, 123.491, 0.00704184, NaN, NaN, NaN, 0.0372337, "- N/A -   "
4.19, 124.788, 0.007102931, NaN, NaN, NaN, 0.04089605, "- N/A -   "
4.23, 126.086, 0.00716402, NaN, NaN, NaN, 0.0433376, "- N/A -   "
4.27, 127.619, 0.00722511, NaN, NaN, NaN, 0.0445584, "- N/A -   "
4.31, 128.917, 0.00729175, NaN, NaN, NaN, 0.04577916, "- N/A -   "
4.35, 130.214, 0.00735562, NaN, NaN, NaN, 0.04577916, "- N/A -   "
4.39, 131.629, 0.00742503, NaN, NaN, NaN, 0.04577916, "- N/A -   "
4.43, 133.281, 0.00749723, NaN, NaN, NaN, 0.0433376, "- N/A -   "
4.47, 135.05, 0.00757498, NaN, NaN, NaN, 0.0372337, "- N/A -   "
4.51, 136.819, 0.00765273, NaN, NaN, NaN, 0.0323506, "- N/A -   "
4.55, 138.352, 0.007724923, NaN, NaN, NaN, 0.0299091, "- N/A -   "
4.59, 139.532, 0.00778601, NaN, NaN, NaN, 0.0323506, "- N/A -   "
4.63, 141.065, 0.007852655, NaN, NaN, NaN, 0.0323506, "- N/A -   "
4.67, 142.3626, 0.007916519, NaN, NaN, NaN, 0.0335714, "- N/A -   "
4.71, 143.778, 0.007977609, NaN, NaN, NaN, 0.03601294, "- N/A -   "
4.75, 145.193, 0.008041473, NaN, NaN, NaN, 0.0372337, "- N/A -   "
4.79, 146.6087, 0.008108115, NaN, NaN, NaN, 0.0384545, "- N/A -   "
4.83, 148.142, 0.008177535, NaN, NaN, NaN, 0.03601294, "- N/A -   "
4.87, 149.557, 0.008241399, NaN, NaN, NaN, 0.0372337, "- N/A -   "
4.91, 150.855, 0.008299711, NaN, NaN, NaN, 0.04211683, "- N/A -   "
4.95, 152.034, 0.008360799, NaN, NaN, NaN, 0.0445584, "- N/A -   "
4.99, 153.568, 0.008421889, NaN, NaN, NaN, 0.04577916, "- N/A -   "
5.03, 155.219, 0.00849131, NaN, NaN, NaN, 0.0445584, "- N/A -   "
5.07, 156.87, 0.008569056, NaN, NaN, NaN, 0.04089605, "- N/A -   "
5.11, 158.521, 0.00864403, NaN, NaN, NaN, 0.03601294, "- N/A -   "
5.15, 160.173, 0.008721777, NaN, NaN, NaN, 0.03112983, "- N/A -   "
5.19, 161.942, 0.00879675, NaN, NaN, NaN, 0.0274675, "- N/A -   "
5.23, 163.357, 0.008860615, NaN, NaN, NaN, 0.0286883, "- N/A -   "
5.27, 164.655, 0.008921703, NaN, NaN, NaN, 0.0323506, "- N/A -   "
5.31, 165.834, 0.008977239, NaN, NaN, NaN, 0.03601294, "- N/A -   "
5.35, 167.25, 0.009041104, NaN, NaN, NaN, 0.0372337, "- N/A -   "
5.39, 168.901, 0.0091133, NaN, NaN, NaN, 0.0347922, "- N/A -   "
5.43, 170.552, 0.009185496, NaN, NaN, NaN, 0.0335714, "- N/A -   "
5.47, 171.9674, 0.00925214, NaN, NaN, NaN, 0.0335714, "- N/A -   "
5.51, 173.265, 0.00931045, NaN, NaN, NaN, 0.03601294, "- N/A -   "
5.55, 174.562, 0.009371538, NaN, NaN, NaN, 0.0384545, "- N/A -   "
5.59, 175.86, 0.00942985, NaN, NaN, NaN, 0.04211683, "- N/A -   "
5.63, 177.393, 0.009499268, NaN, NaN, NaN, 0.04211683, "- N/A -   "
5.67, 179.044, 0.009568687, NaN, NaN, NaN, 0.0396753, "- N/A -   "
5.71, 180.46, 0.009632552, NaN, NaN, NaN, 0.04089605, "- N/A -   "
5.75, 181.993, 0.009701971, NaN, NaN, NaN, 0.0396753, "- N/A -   "
5.79, 183.762, 0.009774166, NaN, NaN, NaN, 0.0372337, "- N/A -   "
5.83, 185.295, 0.009843585, NaN, NaN, NaN, 0.03601294, "- N/A -   "
5.87, 186.829, 0.009910227, NaN, NaN, NaN, 0.03601294, "- N/A -   "
5.91, 188.3621, 0.009979647, NaN, NaN, NaN, 0.0347922, "- N/A -   "
5.95, 189.895, 0.0100463, NaN, NaN, NaN, 0.0347922, "- N/A -   "
5.99, 191.311, 0.0101157, NaN, NaN, NaN, 0.0335714, "- N/A -   "
6.03, 192.726, 0.0101796, NaN, NaN, NaN, 0.0347922, "- N/A -   "
6.07, 194.259, 0.0102462, NaN, NaN, NaN, 0.0347922, "- N/A -   "
6.11, 195.5569, 0.0103101, NaN, NaN, NaN, 0.03601294, "- N/A -   "
6.15, 196.972, 0.0103739, NaN, NaN, NaN, 0.0372337, "- N/A -   "
6.19, 198.506, 0.0104406, NaN, NaN, NaN, 0.0372337, "- N/A -   "
6.23, 200.039, 0.0105128, NaN, NaN, NaN, 0.03601294, "- N/A -   "
6.25, 200.7466, 0.0105433, NaN, NaN, NaN, 0.03601294, "- N/A -   "
6.26, 201.1, 0.01056, NaN, NaN, NaN, 0.0372337, "- N/A -   "
6.27, 201.454, 0.0105739, NaN, NaN, NaN, 0.0372337, "- N/A -   "
6.32, 203.341, 0.0106544, NaN, NaN, NaN, 0.0384545, "- N/A -   "
6.37, 205.2286, 0.0107349, NaN, NaN, NaN, 0.0396753, "- N/A -   "
6.42, 206.9978, 0.0108182, NaN, NaN, NaN, 0.04089605, "- N/A -   "
6.47, 208.885, 0.0109015, NaN, NaN, NaN, 0.0396753, "- N/A -   "
6.52, 210.89, 0.0109959, NaN, NaN, NaN, 0.03601294, "- N/A -   "
6.57, 213.013, 0.0110848, NaN, NaN, NaN, 0.0323506, "- N/A -   "
6.62, 214.782, 0.0111681, NaN, NaN, NaN, 0.0323506, "- N/A -   "
6.67, 216.552, 0.0112514, NaN, NaN, NaN, 0.0323506, "- N/A -   "
6.72, 218.321, 0.0113347, NaN, NaN, NaN, 0.0323506, "- N/A -   "
6.77, 220.09, 0.0114236, NaN, NaN, NaN, 0.0299091, "- N/A -   "
6.82, 222.095, 0.0115069, NaN, NaN, NaN, 0.0299091, "- N/A -   "
6.87, 223.6284, 0.0115874, NaN, NaN, NaN, 0.03112983, "- N/A -   "
6.92, 225.398, 0.0116651, NaN, NaN, NaN, 0.0335714, "- N/A -   "
6.97, 226.577, 0.011729, NaN, NaN, NaN, 0.04211683, "- N/A -   "
7.02, 228.228, 0.0118067, NaN, NaN, NaN, 0.04577916, "- N/A -   "
7.07, 229.762, 0.0118817, NaN, NaN, NaN, 0.0482207, "- N/A -   "
7.12, 231.767, 0.01197613, NaN, NaN, NaN, 0.0433376, "- N/A -   "
7.17, 233.772, 0.0120733, NaN, NaN, NaN, 0.0384545, "- N/A -   "
7.22, 235.5411, 0.0121594, NaN, NaN, NaN, 0.03601294, "- N/A -   "
7.27, 237.428, 0.0122483, NaN, NaN, NaN, 0.0335714, "- N/A -   "
7.32, 239.315, 0.0123399, NaN, NaN, NaN, 0.03112983, "- N/A -   "
7.37, 241.085, 0.012426, NaN, NaN, NaN, 0.0299091, "- N/A -   "
7.42, 242.853, 0.0125093, NaN, NaN, NaN, 0.0286883, "- N/A -   "
7.47, 244.503, 0.01259257, NaN, NaN, NaN, 0.0299091, "- N/A -   "
7.52, 246.035, 0.0126648, NaN, NaN, NaN, 0.0335714, "- N/A -   "
7.57, 247.4487, 0.01273696, NaN, NaN, NaN, 0.0384545, "- N/A -   "
7.62, 248.863, 0.0128119, NaN, NaN, NaN, 0.04211683, "- N/A -   "
7.67, 250.512, 0.0128925, NaN, NaN, NaN, 0.0433376, "- N/A -   "
7.72, 252.397, 0.0129841, NaN, NaN, NaN, 0.04089605, "- N/A -   "
7.77, 254.165, 0.0130646, NaN, NaN, NaN, 0.04089605, "- N/A -   "
7.82, 256.05, 0.0131535, NaN, NaN, NaN, 0.0384545, "- N/A -   "
7.87, 257.817, 0.0132396, NaN, NaN, NaN, 0.0372337, "- N/A -   "
7.92, 259.82, 0.0133312, NaN, NaN, NaN, 0.0335714, "- N/A -   "
7.97, 261.588, 0.0134228, NaN, NaN, NaN, 0.0299091, "- N/A -   "
8.02, 263.355, 0.0135089, NaN, NaN, NaN, 0.0286883, "- N/A -   "
8.07, 265.123, 0.0135922, NaN, NaN, NaN, 0.0286883, "- N/A -   "
8.12, 266.654, 0.0136699, NaN, NaN, NaN, 0.03112983, "- N/A -   "
8.17, 268.1861, 0.0137449, NaN, NaN, NaN, 0.03601294, "- N/A -   "
8.22, 269.836, 0.0138282, NaN, NaN, NaN, 0.03601294, "- N/A -   "
8.27, 271.603, 0.0139143, NaN, NaN, NaN, 0.03601294, "- N/A -   "
8.32, 273.017, 0.0139893, NaN, NaN, NaN, 0.0384545, "- N/A -   "
8.37, 274.549, 0.0140587, NaN, NaN, NaN, 0.0445584, "- N/A -   "
8.42, 276.08, 0.0141392, NaN, NaN, NaN, 0.04699994, "- N/A -   "
8.47, 277.966, 0.0142225, NaN, NaN, NaN, 0.04577916, "- N/A -   "
8.52, 280.204, 0.014328, NaN, NaN, NaN, 0.0372337, "- N/A -   "
8.57, 282.09, 0.0144224, NaN, NaN, NaN, 0.0323506, "- N/A -   "
8.62, 283.857, 0.0145113, NaN, NaN, NaN, 0.0286883, "- N/A -   "
8.67, 285.5065, 0.0145891, NaN, NaN, NaN, 0.03112983, "- N/A -   "
8.72, 286.685, 0.0146585, NaN, NaN, NaN, 0.0372337, "- N/A -   "
8.77, 288.334, 0.0147418, NaN, NaN, NaN, 0.0384545, "- N/A -   "
8.82, 290.22, 0.0148306, NaN, NaN, NaN, 0.03601294, "- N/A -   "
8.87, 291.987, 0.0149112, NaN, NaN, NaN, 0.03601294, "- N/A -   "
8.92, 293.637, 0.0149917, NaN, NaN, NaN, 0.0372337, "- N/A -   "
8.97, 295.05, 0.0150667, NaN, NaN, NaN, 0.04089605, "- N/A -   "
9.02, 296.7, 0.0151444, NaN, NaN, NaN, 0.0433376, "- N/A -   "
9.07, 298.821, 0.01524159, NaN, NaN, NaN, 0.0372337, "- N/A -   "
9.12, 300.47, 0.0153249, NaN, NaN, NaN, 0.0372337, "- N/A -   "
9.17, 302.238, 0.015411, NaN, NaN, NaN, 0.0372337, "- N/A -   "
9.22, 304.005, 0.0154943, NaN, NaN, NaN, 0.03601294, "- N/A -   "
9.27, 305.537, 0.0155748, NaN, NaN, NaN, 0.0384545, "- N/A -   "
9.32, 307.187, 0.0156581, NaN, NaN, NaN, 0.0384545, "- N/A -   "
[...]
32.92, 1294.2, 0.054988, NaN, NaN, NaN, 0.0396753, "- N/A -   "
33.07, 1301.11, 0.0552379, NaN, NaN, NaN, 0.0384545, "- N/A -   "
33.22, 1308.03, 0.0554906, NaN, NaN, NaN, 0.0372337, "- N/A -   "
33.37, 1315.07, 0.0557461, NaN, NaN, NaN, 0.0347922, "- N/A -   "
33.52, 1321.98, 0.0560015, NaN, NaN, NaN, 0.0335714, "- N/A -   "
33.67, 1328.3, 0.0562292, NaN, NaN, NaN, 0.04211683, "- N/A -   "
33.82, 1335.82, 0.0564958, NaN, NaN, NaN, 0.03601294, "- N/A -   "
33.97, 1342.73, 0.05674848, NaN, NaN, NaN, 0.0335714, "- N/A -   "
34.12, 1349.89, 0.0570123, NaN, NaN, NaN, 0.0286883, "- N/A -   "
34.27, 1355.97, 0.0572344, NaN, NaN, NaN, 0.0396753, "- N/A -   "
34.42, 1362.53, 0.05747321, NaN, NaN, NaN, 0.0445584, "- N/A -   "
34.57, 1370.04, 0.0577453, NaN, NaN, NaN, 0.0347922, "- N/A -   "
34.72, 1377.2, 0.05800912, NaN, NaN, NaN, 0.0286883, "- N/A -   "
34.87, 1383.4, 0.0582368, NaN, NaN, NaN, 0.0396753, "- N/A -   "
34.99, 1388.41, 0.0584256, NaN, NaN, NaN, 0.0433376, "- N/A -   "
35, 1389, 0.0584423, NaN, NaN, NaN, 0.0433376, "- N/A -   "
35.01, 1389.48, 0.058459, NaN, NaN, NaN, 0.0433376, "- N/A -   "
35.04, 1390.79, 0.05850894, NaN, NaN, NaN, 0.0433376, "- N/A -   "
35.07, 1392.34, 0.0585617, NaN, NaN, NaN, 0.04211683, "- N/A -   "
35.1, 1393.65, 0.0586145, NaN, NaN, NaN, 0.04089605, "- N/A -   "
35.13, 1395.32, 0.05866999, NaN, NaN, NaN, 0.0384545, "- N/A -   "
35.16, 1396.87, 0.05872552, NaN, NaN, NaN, 0.0372337, "- N/A -   "
35.19, 1398.54, 0.0587838, NaN, NaN, NaN, 0.0323506, "- N/A -   "
35.22, 1400.211, 0.0588449, NaN, NaN, NaN, 0.0286883, "- N/A -   "
35.25, 1401.64, 0.0588977, NaN, NaN, NaN, 0.0274675, "- N/A -   "
35.28, 1402.954, 0.05894489, NaN, NaN, NaN, 0.0286883, "- N/A -   "
35.31, 1404.27, 0.0589949, NaN, NaN, NaN, 0.0286883, "- N/A -   "
35.34, 1405.58, 0.05904485, NaN, NaN, NaN, 0.0286883, "- N/A -   "
35.37, 1406.89, 0.0590893, NaN, NaN, NaN, 0.03112983, "- N/A -   "
35.4, 1408.08, 0.0591337, NaN, NaN, NaN, 0.0335714, "- N/A -   "
35.43, 1409.27, 0.05918091, NaN, NaN, NaN, 0.0347922, "- N/A -   "
35.46, 1410.71, 0.0592281, NaN, NaN, NaN, 0.0372337, "- N/A -   "
35.49, 1411.9, 0.05927532, NaN, NaN, NaN, 0.0372337, "- N/A -   "
35.52, 1413.45, 0.0593281, NaN, NaN, NaN, 0.03601294, "- N/A -   "
35.55, 1415, 0.05938084, NaN, NaN, NaN, 0.0347922, "- N/A -   "
35.58, 1416.07, 0.0594253, NaN, NaN, NaN, 0.0372337, "- N/A -   "
35.61, 1417.26, 0.0594697, NaN, NaN, NaN, 0.0396753, "- N/A -   "
35.64, 1418.58, 0.0595169, NaN, NaN, NaN, 0.04089605, "- N/A -   "
35.67, 1419.77, 0.0595613, NaN, NaN, NaN, 0.0433376, "- N/A -   "
35.7, 1420.96, 0.0596085, NaN, NaN, NaN, 0.0445584, "- N/A -   "
35.73, 1422.39, 0.0596557, NaN, NaN, NaN, 0.04699994, "- N/A -   "
35.76, 1423.82, 0.0597085, NaN, NaN, NaN, 0.04577916, "- N/A -   "
35.79, 1425.61, 0.0597668, NaN, NaN, NaN, 0.04089605, "- N/A -   "
35.82, 1427.4, 0.0598279, NaN, NaN, NaN, 0.03601294, "- N/A -   "
35.85, 1428.83, 0.0598834, NaN, NaN, NaN, 0.0335714, "- N/A -   "
35.88, 1430.382, 0.0599362, NaN, NaN, NaN, 0.0323506, "- N/A -   "
35.91, 1431.69, 0.05998617, NaN, NaN, NaN, 0.0335714, "- N/A -   "
35.94, 1432.767, 0.06002782, NaN, NaN, NaN, 0.03601294, "- N/A -   "
35.97, 1433.721, 0.06006947, NaN, NaN, NaN, 0.0396753, "- N/A -   "
36, 1435.15, 0.0601195, NaN, NaN, NaN, 0.0396753, "- N/A -   "
36.03, 1436.46, 0.0601694, NaN, NaN, NaN, 0.04089605, "- N/A -   "
36.06, 1437.89, 0.0602166, NaN, NaN, NaN, 0.04089605, "- N/A -   "
36.09, 1439.33, 0.0602722, NaN, NaN, NaN, 0.0384545, "- N/A -   "
36.12, 1441.11, 0.0603333, NaN, NaN, NaN, 0.0347922, "- N/A -   "
36.15, 1442.66, 0.06038602, NaN, NaN, NaN, 0.0323506, "- N/A -   "
36.18, 1443.86, 0.0604332, NaN, NaN, NaN, 0.0335714, "- N/A -   "
36.21, 1445.05, 0.0604777, NaN, NaN, NaN, 0.03601294, "- N/A -   "
36.24, 1446.36, 0.06052208, NaN, NaN, NaN, 0.0384545, "- N/A -   "
36.27, 1447.43, 0.06056651, NaN, NaN, NaN, 0.04089605, "- N/A -   "
36.3, 1448.75, 0.0606109, NaN, NaN, NaN, 0.0433376, "- N/A -   "
36.33, 1450.06, 0.0606637, NaN, NaN, NaN, 0.0433376, "- N/A -   "
36.36, 1451.728, 0.06072201, NaN, NaN, NaN, 0.0396753, "- N/A -   "
36.39, 1453.28, 0.0607748, NaN, NaN, NaN, 0.0372337, "- N/A -   "
36.42, 1454.59, 0.06082197, NaN, NaN, NaN, 0.0384545, "- N/A -   "
36.45, 1456.021, 0.060872, NaN, NaN, NaN, 0.0384545, "- N/A -   "
36.48, 1457.452, 0.0609247, NaN, NaN, NaN, 0.0372337, "- N/A -   "
36.51, 1458.883, 0.06098025, NaN, NaN, NaN, 0.03601294, "- N/A -   "
36.54, 1460.31, 0.0610302, NaN, NaN, NaN, 0.03601294, "- N/A -   "
36.57, 1461.75, 0.06108021, NaN, NaN, NaN, 0.0347922, "- N/A -   "
36.6, 1462.94, 0.0611302, NaN, NaN, NaN, 0.0347922, "- N/A -   "
36.63, 1464.37, 0.06118017, NaN, NaN, NaN, 0.0347922, "- N/A -   "
36.66, 1465.8, 0.06123293, NaN, NaN, NaN, 0.0335714, "- N/A -   "
36.69, 1467.35, 0.0612885, NaN, NaN, NaN, 0.03112983, "- N/A -   "
36.72, 1468.9, 0.0613412, NaN, NaN, NaN, 0.0299091, "- N/A -   "
36.75, 1470.212, 0.0613912, NaN, NaN, NaN, 0.03112983, "- N/A -   "
36.78, 1471.4, 0.0614356, NaN, NaN, NaN, 0.0323506, "- N/A -   "
36.81, 1472.72, 0.0614828, NaN, NaN, NaN, 0.0335714, "- N/A -   "
36.84, 1473.91, 0.06153, NaN, NaN, NaN, 0.0347922, "- N/A -   "
36.87, 1475.34, 0.06158558, NaN, NaN, NaN, 0.0335714, "- N/A -   "
36.9, 1476.77, 0.0616328, NaN, NaN, NaN, 0.0335714, "- N/A -   "
36.93, 1478.08, 0.0616828, NaN, NaN, NaN, 0.0347922, "- N/A -   "
36.96, 1479.39, 0.0617272, NaN, NaN, NaN, 0.03601294, "- N/A -   "
36.99, 1480.71, 0.06177162, NaN, NaN, NaN, 0.0384545, "- N/A -   "
37.02, 1481.9, 0.0618188, NaN, NaN, NaN, 0.0396753, "- N/A -   "
37.05, 1483.09, 0.06186603, NaN, NaN, NaN, 0.04089605, "- N/A -   "
37.08, 1484.4, 0.0619105, NaN, NaN, NaN, 0.0433376, "- N/A -   "
37.11, 1485.6, 0.0619577, NaN, NaN, NaN, 0.0445584, "- N/A -   "
37.14, 1486.91, 0.0620049, NaN, NaN, NaN, 0.04699994, "- N/A -   "
37.17, 1488.46, 0.0620576, NaN, NaN, NaN, 0.04577916, "- N/A -   "
37.2, 1490.13, 0.06211594, NaN, NaN, NaN, 0.04211683, "- N/A -   "
37.23, 1491.8, 0.0621715, NaN, NaN, NaN, 0.0384545, "- N/A -   "
37.26, 1493.23, 0.062227, NaN, NaN, NaN, 0.03601294, "- N/A -   "
37.29, 1494.54, 0.062277, NaN, NaN, NaN, 0.03601294, "- N/A -   "
37.32, 1495.97, 0.06232697, NaN, NaN, NaN, 0.03601294, "- N/A -   "
37.35, 1497.28, 0.062377, NaN, NaN, NaN, 0.03601294, "- N/A -   "
37.38, 1498.71, 0.06242971, NaN, NaN, NaN, 0.0347922, "- N/A -   "
37.41, 1500.26, 0.06248247, NaN, NaN, NaN, 0.0335714, "- N/A -   "
37.44, 1501.81, 0.062538, NaN, NaN, NaN, 0.03112983, "- N/A -   "
37.47, 1503.36, 0.06259354, NaN, NaN, NaN, 0.0286883, "- N/A -   "
37.5, 1504.8, 0.0626463, NaN, NaN, NaN, 0.0274675, "- N/A -   "
37.53, 1506.23, 0.06269628, NaN, NaN, NaN, 0.0286883, "- N/A -   "
37.56, 1507.42, 0.0627407, NaN, NaN, NaN, 0.03112983, "- N/A -   "
37.59, 1508.492, 0.0627824, NaN, NaN, NaN, 0.0335714, "- N/A -   "
37.62, 1509.57, 0.06282679, NaN, NaN, NaN, 0.03601294, "- N/A -   "
37.65, 1510.76, 0.06287121, NaN, NaN, NaN, 0.0396753, "- N/A -   "
37.68, 1511.831, 0.06291287, NaN, NaN, NaN, 0.0433376, "- N/A -   "
37.71, 1513.02, 0.0629545, NaN, NaN, NaN, 0.04577916, "- N/A -   "
37.74, 1514.216, 0.06300172, NaN, NaN, NaN, 0.04699994, "- N/A -   "
37.77, 1515.53, 0.06304893, NaN, NaN, NaN, 0.0482207, "- N/A -   "
37.8, 1517.078, 0.06310446, NaN, NaN, NaN, 0.04577916, "- N/A -   "
37.83, 1518.75, 0.06316, NaN, NaN, NaN, 0.0433376, "- N/A -   "
37.86, 1520.18, 0.06321831, NaN, NaN, NaN, 0.04089605, "- N/A -   "
37.89, 1521.729, 0.06327107, NaN, NaN, NaN, 0.0384545, "- N/A -   "
37.92, 1523.4, 0.06332938, NaN, NaN, NaN, 0.03601294, "- N/A -   "
37.95, 1524.83, 0.0633821, NaN, NaN, NaN, 0.0335714, "- N/A -   "
37.98, 1526.38, 0.06343489, NaN, NaN, NaN, 0.0323506, "- N/A -   "
38.01, 1527.81, 0.06348488, NaN, NaN, NaN, 0.0323506, "- N/A -   "
38.04, 1529.24, 0.0635404, NaN, NaN, NaN, 0.03112983, "- N/A -   "
38.07, 1530.67, 0.06359317, NaN, NaN, NaN, 0.0286883, "- N/A -   "
38.1, 1532.22, 0.06364593, NaN, NaN, NaN, 0.0274675, "- N/A -   "
38.13, 1533.65, 0.06369591, NaN, NaN, NaN, 0.0274675, "- N/A -   "
38.16, 1534.97, 0.06374589, NaN, NaN, NaN, 0.0274675, "- N/A -   "
38.19, 1536.16, 0.06379309, NaN, NaN, NaN, 0.0286883, "- N/A -   "
38.22, 1537.59, 0.06383753, NaN, NaN, NaN, 0.03112983, "- N/A -   "
38.25, 1538.42, 0.06387918, NaN, NaN, NaN, 0.0347922, "- N/A -   "
38.28, 1539.736, 0.0639236, NaN, NaN, NaN, 0.0384545, "- N/A -   "
38.31, 1540.81, 0.06396525, NaN, NaN, NaN, 0.04089605, "- N/A -   "
38.34, 1542.12, 0.06401246, NaN, NaN, NaN, 0.04211683, "- N/A -   "
38.37, 1543.552, 0.06406244, NaN, NaN, NaN, 0.04211683, "- N/A -   "
38.383, 1544.03, 0.06408188, NaN, NaN, NaN, 0.0433376, "- N/A -   "