File: 2_Tensile_Data/Hamel_ForceTest_Bolt6_Test3.csv
Time, Load (lb), Position (in), AxialStrain (in), TransverseStrain (in), Auxiliary (), Control Out (V), Stress (psi)
0.0, 1.29742, 0.0, NaN, NaN, NaN, 0.104376, "- N/A -   "
0.01, 1.65126, 3.054427E-5, NaN, NaN, NaN, 0.103156, "- N/A -   "
0.02, 2.12305, 6.108854E-5, NaN, NaN, NaN, 0.09705182, "- N/A -   "
0.03, 2.476897, 8.885606E-5, NaN, NaN, NaN, 0.09094793, "- N/A -   "
0.04, 2.83074, 0.0001194, NaN, NaN, NaN, 0.08606482, "- N/A -   "
0.05, 3.30253, 0.000147168, NaN, NaN, NaN, 0.0799609, "- N/A -   "
0.06, 3.65637, 0.000172159, NaN, NaN, NaN, 0.0762986, "- N/A -   "
0.07, 4.010214, 0.000202703, NaN, NaN, NaN, 0.07141549, "- N/A -   "
0.08, 4.36406, 0.000224917, NaN, NaN, NaN, 0.06775316, "- N/A -   "
0.09, 4.717899, 0.000249908, NaN, NaN, NaN, 0.0640908, "- N/A -   "
0.1, 5.071741, 2.776752E-4, NaN, NaN, NaN, 0.0604285, "- N/A -   "
0.11, 5.54353, 0.000302666, NaN, NaN, NaN, 0.05676616, "- N/A -   "
0.12, 5.779426, 0.00032488, NaN, NaN, NaN, 0.0531038, "- N/A -   "
0.13, 6.251216, 0.000347094, NaN, NaN, NaN, 0.05066227, "- N/A -   "
0.14, 6.487111, 0.000366531, NaN, NaN, NaN, 0.0494415, "- N/A -   "
0.15, 6.723006, 0.000388745, NaN, NaN, NaN, 0.0482207, "- N/A -   "
0.16, 6.9589, 4.081825E-4, NaN, NaN, NaN, 0.04577916, "- N/A -   "
0.17, 7.312743, 0.000430397, NaN, NaN, NaN, 0.0445584, "- N/A -   "
0.18, 7.666586, 0.000449834, NaN, NaN, NaN, 0.04211683, "- N/A -   "
0.19, 8.020428, 4.720478E-4, NaN, NaN, NaN, 0.04089605, "- N/A -   "
0.2, 8.256323, 0.000491485, NaN, NaN, NaN, 0.0384545, "- N/A -   "
0.21, 8.610166, 5.136991E-4, NaN, NaN, NaN, 0.0372337, "- N/A -   "
0.22, 8.964007, 0.000533136, NaN, NaN, NaN, 0.03601294, "- N/A -   "
0.23, 9.199903, 0.000549797, NaN, NaN, NaN, 0.0347922, "- N/A -   "
0.24, 9.435798, 5.664574E-4, NaN, NaN, NaN, 0.0347922, "- N/A -   "
0.25, 9.78964, 5.858946E-4, NaN, NaN, NaN, 0.0347922, "- N/A -   "
0.26, 10.1435, 0.000602555, NaN, NaN, NaN, 0.0335714, "- N/A -   "
0.27, 10.26143, 6.219924E-4, NaN, NaN, NaN, 0.0335714, "- N/A -   "
0.28, 10.6153, 0.000638653, NaN, NaN, NaN, 0.0323506, "- N/A -   "
0.29, 10.8512, 0.000655313, NaN, NaN, NaN, 0.0323506, "- N/A -   "
0.3, 11.205, 6.747507E-4, NaN, NaN, NaN, 0.0323506, "- N/A -   "
0.31, 11.4409, 6.914112E-4, NaN, NaN, NaN, 0.03112983, "- N/A -   "
0.32, 11.6768, 7.080717E-4, NaN, NaN, NaN, 0.03112983, "- N/A -   "
0.33, 12.0306, 0.000724732, NaN, NaN, NaN, 0.03112983, "- N/A -   "
0.34, 12.2665, 7.413927E-4, NaN, NaN, NaN, 0.03112983, "- N/A -   "
0.35, 12.5024, 0.000758053, NaN, NaN, NaN, 0.0323506, "- N/A -   "
0.36, 12.6204, 7.71937E-4, NaN, NaN, NaN, 0.0323506, "- N/A -   "
0.37, 12.9742, 0.000785821, NaN, NaN, NaN, 0.0347922, "- N/A -   "
0.38, 13.09217, 7.997045E-4, NaN, NaN, NaN, 0.0347922, "- N/A -   "
0.39, 13.446, 8.16365E-4, NaN, NaN, NaN, 0.0347922, "- N/A -   "
0.4, 13.564, 8.302488E-4, NaN, NaN, NaN, 0.03601294, "- N/A -   "
0.41, 13.9178, 8.469093E-4, NaN, NaN, NaN, 0.0372337, "- N/A -   "
0.42, 14.1537, 0.000860793, NaN, NaN, NaN, 0.0372337, "- N/A -   "
0.43, 14.3896, 8.746768E-4, NaN, NaN, NaN, 0.0384545, "- N/A -   "
0.44, 14.5075, 0.000891337, NaN, NaN, NaN, 0.0384545, "- N/A -   "
0.45, 14.8614, 9.052211E-4, NaN, NaN, NaN, 0.0396753, "- N/A -   "
0.46, 15.0973, 9.218816E-4, NaN, NaN, NaN, 0.04089605, "- N/A -   "
0.47, 15.2152, 0.000935765, NaN, NaN, NaN, 0.04211683, "- N/A -   "
0.48, 15.5691, 0.000949649, NaN, NaN, NaN, 0.0433376, "- N/A -   "
0.49, 15.687, 9.635329E-4, NaN, NaN, NaN, 0.0445584, "- N/A -   "
0.5, 15.9229, 9.774166E-4, NaN, NaN, NaN, 0.0445584, "- N/A -   "
0.51, 16.27675, 9.940772E-4, NaN, NaN, NaN, 0.0445584, "- N/A -   "
0.55, 17.3383, 0.00106072, NaN, NaN, NaN, 0.0445584, "- N/A -   "
0.59, 18.3998, 0.00112736, NaN, NaN, NaN, 0.04577916, "- N/A -   "
0.63, 19.4613, 0.001194, NaN, NaN, NaN, 0.0445584, "- N/A -   "
0.67, 20.7588, 0.00126342, NaN, NaN, NaN, 0.0433376, "- N/A -   "
0.71, 21.8203, 0.00133284, NaN, NaN, NaN, 0.04211683, "- N/A -   "
0.75, 23.1177, 0.00141059, NaN, NaN, NaN, 0.0372337, "- N/A -   "
0.79, 24.769, 0.00149112, NaN, NaN, NaN, 0.03112983, "- N/A -   "
0.83, 25.9484, 0.00156609, NaN, NaN, NaN, 0.0286883, "- N/A -   "
0.87, 27.1279, 0.00163273, NaN, NaN, NaN, 0.0274675, "- N/A -   "
0.91, 28.3074, 0.00169382, NaN, NaN, NaN, 0.0299091, "- N/A -   "
0.95, 29.4869, 0.00175491, NaN, NaN, NaN, 0.0323506, "- N/A -   "
0.99, 30.78429, 0.00181877, NaN, NaN, NaN, 0.0335714, "- N/A -   "
1.03, 31.8458, 0.001879861, NaN, NaN, NaN, 0.0372337, "- N/A -   "
1.07, 33.1432, 0.0019465, NaN, NaN, NaN, 0.0372337, "- N/A -   "
1.11, 34.55861, 0.00201037, NaN, NaN, NaN, 0.0372337, "- N/A -   "
1.15, 35.7381, 0.00207701, NaN, NaN, NaN, 0.0372337, "- N/A -   "
1.19, 36.9176, 0.00214088, NaN, NaN, NaN, 0.0396753, "- N/A -   "
1.23, 38.097, 0.00219919, NaN, NaN, NaN, 0.04211683, "- N/A -   "
1.27, 39.2765, 0.002260276, NaN, NaN, NaN, 0.0445584, "- N/A -   "
1.31, 40.69188, 0.002326918, NaN, NaN, NaN, 0.04577916, "- N/A -   "
1.35, 42.2252, 0.00240467, NaN, NaN, NaN, 0.0396753, "- N/A -   "
1.39, 43.75851, 0.00247964, NaN, NaN, NaN, 0.03601294, "- N/A -   "
1.43, 45.29183, 0.00255461, NaN, NaN, NaN, 0.0323506, "- N/A -   "
1.47, 46.7072, 0.002629584, NaN, NaN, NaN, 0.0299091, "- N/A -   "
1.51, 48.00462, 0.0026879, NaN, NaN, NaN, 0.0323506, "- N/A -   "
1.55, 49.30204, 0.00274898, NaN, NaN, NaN, 0.0347922, "- N/A -   "
1.59, 50.4815, 0.00281285, NaN, NaN, NaN, 0.03601294, "- N/A -   "
1.63, 52.01483, 0.00288227, NaN, NaN, NaN, 0.03601294, "- N/A -   "
1.67, 53.4302, 0.002951687, NaN, NaN, NaN, 0.0335714, "- N/A -   "
1.71, 54.8456, 0.003021106, NaN, NaN, NaN, 0.0323506, "- N/A -   "
1.75, 56.02505, 0.00308219, NaN, NaN, NaN, 0.0347922, "- N/A -   "
1.79, 57.44042, 0.00314606, NaN, NaN, NaN, 0.03601294, "- N/A -   "
1.83, 58.6199, 0.00320437, NaN, NaN, NaN, 0.0396753, "- N/A -   "
1.87, 60.0353, 0.00326546, NaN, NaN, NaN, 0.04211683, "- N/A -   "
1.91, 61.3327, 0.00333488, NaN, NaN, NaN, 0.04089605, "- N/A -   "
1.95, 62.866, 0.003404298, NaN, NaN, NaN, 0.0396753, "- N/A -   "
1.99, 64.28137, 0.00347094, NaN, NaN, NaN, 0.0396753, "- N/A -   "
2.03, 65.81469, 0.00354314, NaN, NaN, NaN, 0.0384545, "- N/A -   "
2.07, 67.23006, 0.00361255, NaN, NaN, NaN, 0.0372337, "- N/A -   "
2.11, 68.52748, 0.00367642, NaN, NaN, NaN, 0.0372337, "- N/A -   "
2.15, 70.0608, 0.00374306, NaN, NaN, NaN, 0.0384545, "- N/A -   "
2.19, 71.3582, 0.0038097, NaN, NaN, NaN, 0.0384545, "- N/A -   "
2.23, 73.12743, 0.00387912, NaN, NaN, NaN, 0.03601294, "- N/A -   "
2.27, 74.66075, 0.00395687, NaN, NaN, NaN, 0.0323506, "- N/A -   "
2.31, 76.19407, 0.00402351, NaN, NaN, NaN, 0.03112983, "- N/A -   "
2.35, 77.37354, 0.00409016, NaN, NaN, NaN, 0.0323506, "- N/A -   "
2.39, 78.90686, 0.004154021, NaN, NaN, NaN, 0.0323506, "- N/A -   "
2.43, 80.0863, 0.00421511, NaN, NaN, NaN, 0.0347922, "- N/A -   "
2.47, 81.5017, 0.00428175, NaN, NaN, NaN, 0.0347922, "- N/A -   "
2.51, 83.03502, 0.004345617, NaN, NaN, NaN, 0.03601294, "- N/A -   "
2.55, 84.45039, 0.004412259, NaN, NaN, NaN, 0.0372337, "- N/A -   "
2.59, 85.86576, 0.004476124, NaN, NaN, NaN, 0.0372337, "- N/A -   "
2.63, 87.28113, 0.004539989, NaN, NaN, NaN, 0.0384545, "- N/A -   "
2.67, 88.4606, 0.004598301, NaN, NaN, NaN, 0.04211683, "- N/A -   "
2.71, 89.87598, 0.00465939, NaN, NaN, NaN, 0.0445584, "- N/A -   "
2.75, 91.40929, 0.004734362, NaN, NaN, NaN, 0.04211683, "- N/A -   "
2.79, 93.2965, 0.004812111, NaN, NaN, NaN, 0.03601294, "- N/A -   "
2.83, 94.9477, 0.00488986, NaN, NaN, NaN, 0.0323506, "- N/A -   "
2.87, 96.36309, 0.00495373, NaN, NaN, NaN, 0.0323506, "- N/A -   "
2.91, 97.54256, 0.00501759, NaN, NaN, NaN, 0.0335714, "- N/A -   "
2.95, 98.9579, 0.005075902, NaN, NaN, NaN, 0.0372337, "- N/A -   "
2.99, 100.491, 0.0051481, NaN, NaN, NaN, 0.0347922, "- N/A -   "
3.03, 101.907, 0.00522307, NaN, NaN, NaN, 0.0323506, "- N/A -   "
3.07, 103.558, 0.00529249, NaN, NaN, NaN, 0.0299091, "- N/A -   "
3.11, 105.091, 0.005359131, NaN, NaN, NaN, 0.0299091, "- N/A -   "
3.15, 106.389, 0.005423, NaN, NaN, NaN, 0.0323506, "- N/A -   "
3.19, 107.686, 0.005481308, NaN, NaN, NaN, 0.0347922, "- N/A -   "
3.23, 108.748, 0.00553684, NaN, NaN, NaN, 0.0396753, "- N/A -   "
3.27, 109.927, 0.005597932, NaN, NaN, NaN, 0.04211683, "- N/A -   "
3.31, 111.342, 0.00565902, NaN, NaN, NaN, 0.04577916, "- N/A -   "
3.35, 112.64, 0.00572566, NaN, NaN, NaN, 0.04577916, "- N/A -   "
3.39, 114.2911, 0.005797858, NaN, NaN, NaN, 0.0433376, "- N/A -   "
3.43, 115.824, 0.00587283, NaN, NaN, NaN, 0.0384545, "- N/A -   "
3.47, 117.358, 0.005945026, NaN, NaN, NaN, 0.0372337, "- N/A -   "
3.51, 118.891, 0.006014444, NaN, NaN, NaN, 0.03601294, "- N/A -   "
3.55, 120.188, 0.006081086, NaN, NaN, NaN, 0.03601294, "- N/A -   "
3.59, 121.604, 0.00615328, NaN, NaN, NaN, 0.0347922, "- N/A -   "
3.63, 123.255, 0.006228254, NaN, NaN, NaN, 0.0299091, "- N/A -   "
3.67, 124.67, 0.006297673, NaN, NaN, NaN, 0.0286883, "- N/A -   "
3.71, 125.9679, 0.006367092, NaN, NaN, NaN, 0.0274675, "- N/A -   "
3.75, 127.265, 0.006430957, NaN, NaN, NaN, 0.0286883, "- N/A -   "
3.79, 128.327, 0.006486492, NaN, NaN, NaN, 0.0347922, "- N/A -   "
3.83, 129.388, 0.00654203, NaN, NaN, NaN, 0.0384545, "- N/A -   "
3.87, 130.332, 0.00659479, NaN, NaN, NaN, 0.0445584, "- N/A -   "
3.91, 131.511, 0.006655874, NaN, NaN, NaN, 0.04699994, "- N/A -   "
3.95, 132.9268, 0.00672807, NaN, NaN, NaN, 0.0445584, "- N/A -   "
3.99, 134.224, 0.00679749, NaN, NaN, NaN, 0.0433376, "- N/A -   "
4.03, 135.286, 0.00686135, NaN, NaN, NaN, 0.0445584, "- N/A -   "
4.07, 136.583, 0.00693077, NaN, NaN, NaN, 0.0433376, "- N/A -   "
4.11, 137.999, 0.00700574, NaN, NaN, NaN, 0.0396753, "- N/A -   "
4.15, 139.414, 0.00708072, NaN, NaN, NaN, 0.03601294, "- N/A -   "
4.19, 140.947, 0.007161243, NaN, NaN, NaN, 0.0299091, "- N/A -   "
4.23, 142.245, 0.00723344, NaN, NaN, NaN, 0.0274675, "- N/A -   "
4.27, 143.306, 0.0072973, NaN, NaN, NaN, 0.0286883, "- N/A -   "
4.31, 144.486, 0.00736395, NaN, NaN, NaN, 0.0299091, "- N/A -   "
4.35, 145.429, 0.00742226, NaN, NaN, NaN, 0.0323506, "- N/A -   "
4.39, 146.727, 0.00748612, NaN, NaN, NaN, 0.0335714, "- N/A -   "
4.43, 147.788, 0.007547212, NaN, NaN, NaN, 0.03601294, "- N/A -   "
4.47, 148.968, 0.00761385, NaN, NaN, NaN, 0.03601294, "- N/A -   "
4.51, 150.147, 0.0076805, NaN, NaN, NaN, 0.03601294, "- N/A -   "
4.55, 151.327, 0.00774436, NaN, NaN, NaN, 0.0372337, "- N/A -   "
4.59, 152.27, 0.00780267, NaN, NaN, NaN, 0.04211683, "- N/A -   "
4.63, 153.45, 0.007863761, NaN, NaN, NaN, 0.0433376, "- N/A -   "
4.67, 154.511, 0.00792485, NaN, NaN, NaN, 0.04577916, "- N/A -   "
4.71, 155.691, 0.007991492, NaN, NaN, NaN, 0.04699994, "- N/A -   "
4.75, 157.224, 0.008066464, NaN, NaN, NaN, 0.04211683, "- N/A -   "
4.79, 158.639, 0.00814699, NaN, NaN, NaN, 0.03601294, "- N/A -   "
4.83, 160.055, 0.008227515, NaN, NaN, NaN, 0.03112983, "- N/A -   "
4.87, 161.352, 0.008296934, NaN, NaN, NaN, 0.0286883, "- N/A -   "
4.91, 162.414, 0.008355246, NaN, NaN, NaN, 0.0323506, "- N/A -   "
4.95, 163.2393, 0.008416334, NaN, NaN, NaN, 0.0347922, "- N/A -   "
4.99, 164.537, 0.008480201, NaN, NaN, NaN, 0.03601294, "- N/A -   "
5.03, 165.834, 0.008546842, NaN, NaN, NaN, 0.03601294, "- N/A -   "
5.07, 167.014, 0.008619037, NaN, NaN, NaN, 0.0347922, "- N/A -   "
5.11, 168.311, 0.00868568, NaN, NaN, NaN, 0.0335714, "- N/A -   "
5.15, 169.608, 0.008755099, NaN, NaN, NaN, 0.0335714, "- N/A -   "
5.19, 170.67, 0.008813411, NaN, NaN, NaN, 0.03601294, "- N/A -   "
5.23, 171.496, 0.008871722, NaN, NaN, NaN, 0.0396753, "- N/A -   "
5.27, 172.557, 0.008930034, NaN, NaN, NaN, 0.0433376, "- N/A -   "
5.31, 173.973, 0.008999453, NaN, NaN, NaN, 0.04211683, "- N/A -   "
5.35, 175.27, 0.009077202, NaN, NaN, NaN, 0.0384545, "- N/A -   "
5.39, 176.567, 0.009143844, NaN, NaN, NaN, 0.0372337, "- N/A -   "
5.43, 177.629, 0.009213263, NaN, NaN, NaN, 0.0372337, "- N/A -   "
5.47, 178.808, 0.009277128, NaN, NaN, NaN, 0.0384545, "- N/A -   "
5.51, 179.988, 0.009340993, NaN, NaN, NaN, 0.0384545, "- N/A -   "
5.55, 181.285, 0.009410412, NaN, NaN, NaN, 0.0372337, "- N/A -   "
5.59, 182.583, 0.009482607, NaN, NaN, NaN, 0.03601294, "- N/A -   "
5.63, 183.762, 0.009552026, NaN, NaN, NaN, 0.0335714, "- N/A -   "
5.67, 184.942, 0.009624222, NaN, NaN, NaN, 0.0323506, "- N/A -   "
5.71, 186.239, 0.009688087, NaN, NaN, NaN, 0.0323506, "- N/A -   "
5.75, 187.301, 0.00975473, NaN, NaN, NaN, 0.0323506, "- N/A -   "
5.79, 188.598, 0.009818594, NaN, NaN, NaN, 0.0335714, "- N/A -   "
5.83, 189.66, 0.009885237, NaN, NaN, NaN, 0.0347922, "- N/A -   "
5.87, 190.957, 0.009951878, NaN, NaN, NaN, 0.0335714, "- N/A -   "
5.91, 192.018, 0.0100157, NaN, NaN, NaN, 0.0347922, "- N/A -   "
5.95, 193.08, 0.0100741, NaN, NaN, NaN, 0.0384545, "- N/A -   "
5.99, 194.142, 0.0101351, NaN, NaN, NaN, 0.04089605, "- N/A -   "
6.03, 195.321, 0.0102018, NaN, NaN, NaN, 0.04089605, "- N/A -   "
6.07, 196.383, 0.0102629, NaN, NaN, NaN, 0.0433376, "- N/A -   "
6.11, 197.562, 0.0103295, NaN, NaN, NaN, 0.0433376, "- N/A -   "
6.15, 198.859, 0.0104017, NaN, NaN, NaN, 0.04211683, "- N/A -   "
6.19, 200.275, 0.0104739, NaN, NaN, NaN, 0.0384545, "- N/A -   "
6.23, 201.454, 0.01054888, NaN, NaN, NaN, 0.03601294, "- N/A -   "
6.27, 202.87, 0.0106183, NaN, NaN, NaN, 0.0335714, "- N/A -   "
6.31, 204.049, 0.0106794, NaN, NaN, NaN, 0.03601294, "- N/A -   "
6.35, 204.9927, 0.010746, NaN, NaN, NaN, 0.03601294, "- N/A -   "
6.39, 206.408, 0.0108127, NaN, NaN, NaN, 0.03601294, "- N/A -   "
6.43, 207.823, 0.0108932, NaN, NaN, NaN, 0.03112983, "- N/A -   "
6.47, 209.239, 0.0109682, NaN, NaN, NaN, 0.0262467, "- N/A -   "
6.5, 210.064, 0.0110126, NaN, NaN, NaN, 0.0286883, "- N/A -   "
6.51, 210.3, 0.011032, NaN, NaN, NaN, 0.0286883, "- N/A -   "
6.52, 210.654, 0.0110487, NaN, NaN, NaN, 0.0274675, "- N/A -   "
6.53, 210.89, 0.0110626, NaN, NaN, NaN, 0.0286883, "- N/A -   "
6.54, 211.244, 0.01107924, NaN, NaN, NaN, 0.0286883, "- N/A -   "
6.55, 211.48, 0.0110959, NaN, NaN, NaN, 0.0299091, "- N/A -   "
6.56, 211.834, 0.0111098, NaN, NaN, NaN, 0.03112983, "- N/A -   "
6.57, 212.07, 0.0111237, NaN, NaN, NaN, 0.03112983, "- N/A -   "
6.58, 212.1875, 0.0111376, NaN, NaN, NaN, 0.0323506, "- N/A -   "
6.59, 212.4234, 0.0111514, NaN, NaN, NaN, 0.0335714, "- N/A -   "
6.6, 212.6593, 0.0111653, NaN, NaN, NaN, 0.03601294, "- N/A -   "
6.61, 212.777, 0.0111764, NaN, NaN, NaN, 0.0372337, "- N/A -   "
6.62, 213.013, 0.0111903, NaN, NaN, NaN, 0.0396753, "- N/A -   "
6.63, 213.131, 0.0112014, NaN, NaN, NaN, 0.04089605, "- N/A -   "
6.64, 213.485, 0.0112153, NaN, NaN, NaN, 0.0433376, "- N/A -   "
6.65, 213.603, 0.0112264, NaN, NaN, NaN, 0.0445584, "- N/A -   "
6.66, 213.957, 0.0112431, NaN, NaN, NaN, 0.04577916, "- N/A -   "
6.67, 214.075, 0.0112542, NaN, NaN, NaN, 0.04699994, "- N/A -   "
6.68, 214.4285, 0.0112681, NaN, NaN, NaN, 0.0482207, "- N/A -   "
6.69, 214.6644, 0.0112847, NaN, NaN, NaN, 0.0482207, "- N/A -   "
6.7, 215.136, 0.0113042, NaN, NaN, NaN, 0.0482207, "- N/A -   "
6.71, 215.254, 0.0113208, NaN, NaN, NaN, 0.0482207, "- N/A -   "
6.72, 215.726, 0.0113375, NaN, NaN, NaN, 0.04699994, "- N/A -   "
6.73, 216.08, 0.0113569, NaN, NaN, NaN, 0.04699994, "- N/A -   "
6.74, 216.434, 0.0113736, NaN, NaN, NaN, 0.04577916, "- N/A -   "
6.75, 216.67, 0.0113902, NaN, NaN, NaN, 0.04577916, "- N/A -   "
6.76, 217.141, 0.0114097, NaN, NaN, NaN, 0.0445584, "- N/A -   "
6.77, 217.495, 0.0114291, NaN, NaN, NaN, 0.0433376, "- N/A -   "
6.78, 217.849, 0.0114485, NaN, NaN, NaN, 0.0433376, "- N/A -   "
6.79, 218.203, 0.0114652, NaN, NaN, NaN, 0.04211683, "- N/A -   "
6.8, 218.557, 0.0114846, NaN, NaN, NaN, 0.04089605, "- N/A -   "
6.81, 218.793, 0.0115041, NaN, NaN, NaN, 0.04089605, "- N/A -   "
6.82, 219.1464, 0.01152352, NaN, NaN, NaN, 0.0396753, "- N/A -   "
6.83, 219.5, 0.0115402, NaN, NaN, NaN, 0.0384545, "- N/A -   "
6.84, 219.972, 0.0115568, NaN, NaN, NaN, 0.0384545, "- N/A -   "
6.85, 220.208, 0.0115735, NaN, NaN, NaN, 0.0384545, "- N/A -   "
6.86, 220.444, 0.0115902, NaN, NaN, NaN, 0.0384545, "- N/A -   "
6.87, 220.798, 0.0116068, NaN, NaN, NaN, 0.0384545, "- N/A -   "
6.88, 221.152, 0.0116235, NaN, NaN, NaN, 0.0384545, "- N/A -   "
6.89, 221.505, 0.0116457, NaN, NaN, NaN, 0.0372337, "- N/A -   "
6.9, 221.859, 0.0116624, NaN, NaN, NaN, 0.03601294, "- N/A -   "
6.91, 222.213, 0.0116818, NaN, NaN, NaN, 0.03601294, "- N/A -   "
6.92, 222.567, 0.0116985, NaN, NaN, NaN, 0.0347922, "- N/A -   "
6.93, 222.803, 0.0117179, NaN, NaN, NaN, 0.0347922, "- N/A -   "
6.94, 223.157, 0.0117346, NaN, NaN, NaN, 0.0335714, "- N/A -   "
6.95, 223.3925, 0.0117512, NaN, NaN, NaN, 0.0335714, "- N/A -   "
6.96, 223.8643, 0.0117707, NaN, NaN, NaN, 0.0335714, "- N/A -   "
6.97, 224.1002, 0.0117873, NaN, NaN, NaN, 0.0323506, "- N/A -   "
6.98, 224.572, 0.0118095, NaN, NaN, NaN, 0.03112983, "- N/A -   "
6.99, 224.926, 0.011829, NaN, NaN, NaN, 0.0299091, "- N/A -   "
7, 225.28, 0.0118484, NaN, NaN, NaN, 0.0286883, "- N/A -   "
7.01, 225.6335, 0.01186506, NaN, NaN, NaN, 0.0274675, "- N/A -   "
7.13, 229.172, 0.01206221, NaN, NaN, NaN, 0.0299091, "- N/A -   "
7.25, 232.592, 0.0122427, NaN, NaN, NaN, 0.0372337, "- N/A -   "
7.37, 235.895, 0.012426, NaN, NaN, NaN, 0.0445584, "- N/A -   "
7.49, 239.905, 0.0126342, NaN, NaN, NaN, 0.04089605, "- N/A -   "
7.61, 244.2674, 0.01286469, NaN, NaN, NaN, 0.0274675, "- N/A -   "
7.73, 247.802, 0.0130563, NaN, NaN, NaN, 0.03112983, "- N/A -   "
[...]
9.17, 295.2861, 0.0154498, NaN, NaN, NaN, 0.0347922, "- N/A -   "
9.29, 299.174, 0.0156498, NaN, NaN, NaN, 0.0347922, "- N/A -   "
9.41, 303.063, 0.0158358, NaN, NaN, NaN, 0.04089605, "- N/A -   "
9.53, 306.833, 0.0160274, NaN, NaN, NaN, 0.0445584, "- N/A -   "
9.65, 311.546, 0.0162496, NaN, NaN, NaN, 0.0347922, "- N/A -   "
9.77, 315.67, 0.01645503, NaN, NaN, NaN, 0.0323506, "- N/A -   "
9.89, 319.912, 0.0166688, NaN, NaN, NaN, 0.0262467, "- N/A -   "
10.01, 323.6822, 0.01684933, NaN, NaN, NaN, 0.03601294, "- N/A -   "
10.13, 327.4526, 0.0170326, NaN, NaN, NaN, 0.04211683, "- N/A -   "
10.25, 331.812, 0.0172381, NaN, NaN, NaN, 0.0396753, "- N/A -   "
10.37, 335.936, 0.0174436, NaN, NaN, NaN, 0.0372337, "- N/A -   "
10.49, 340.06, 0.0176379, NaN, NaN, NaN, 0.0396753, "- N/A -   "
10.61, 344.6552, 0.0178517, NaN, NaN, NaN, 0.0335714, "- N/A -   "
10.73, 348.426, 0.01803778, NaN, NaN, NaN, 0.0396753, "- N/A -   "
10.85, 352.55, 0.0182322, NaN, NaN, NaN, 0.0433376, "- N/A -   "
10.97, 357.2626, 0.0184515, NaN, NaN, NaN, 0.0347922, "- N/A -   "
11.09, 361.976, 0.0186653, NaN, NaN, NaN, 0.0286883, "- N/A -   "
11.21, 366.1, 0.0188569, NaN, NaN, NaN, 0.03112983, "- N/A -   "
11.33, 369.988, 0.0190485, NaN, NaN, NaN, 0.0347922, "- N/A -   "
11.45, 374.112, 0.01923734, NaN, NaN, NaN, 0.0396753, "- N/A -   "
11.57, 378.353, 0.0194262, NaN, NaN, NaN, 0.0445584, "- N/A -   "
11.69, 383.42, 0.0196539, NaN, NaN, NaN, 0.0323506, "- N/A -   "
11.81, 387.5439, 0.0198482, NaN, NaN, NaN, 0.0347922, "- N/A -   "
11.93, 392.139, 0.0200537, NaN, NaN, NaN, 0.0323506, "- N/A -   "
12.05, 396.263, 0.0202425, NaN, NaN, NaN, 0.0372337, "- N/A -   "
12.17, 400.623, 0.0204424, NaN, NaN, NaN, 0.0372337, "- N/A -   "
12.29, 405.1, 0.0206424, NaN, NaN, NaN, 0.0372337, "- N/A -   "
12.41, 409.4596, 0.0208451, NaN, NaN, NaN, 0.03601294, "- N/A -   "
12.53, 414.1726, 0.02105611, NaN, NaN, NaN, 0.0323506, "- N/A -   "
12.65, 418.768, 0.0212588, NaN, NaN, NaN, 0.03112983, "- N/A -   "
12.77, 423.01, 0.0214476, NaN, NaN, NaN, 0.03601294, "- N/A -   "
12.89, 427.016, 0.0216281, NaN, NaN, NaN, 0.0445584, "- N/A -   "
13.01, 431.611, 0.0218364, NaN, NaN, NaN, 0.04089605, "- N/A -   "
13.13, 436.6774, 0.0220502, NaN, NaN, NaN, 0.0347922, "- N/A -   "
13.25, 441.1548, 0.02225289, NaN, NaN, NaN, 0.0335714, "- N/A -   "
13.37, 445.8678, 0.0224584, NaN, NaN, NaN, 0.03112983, "- N/A -   "
13.49, 449.638, 0.02263053, NaN, NaN, NaN, 0.0445584, "- N/A -   "
13.61, 454.351, 0.0228305, NaN, NaN, NaN, 0.0445584, "- N/A -   "
13.73, 459.418, 0.0230526, NaN, NaN, NaN, 0.0347922, "- N/A -   "
13.85, 464.367, 0.02326363, NaN, NaN, NaN, 0.0286883, "- N/A -   "
13.97, 469.08, 0.0234663, NaN, NaN, NaN, 0.0286883, "- N/A -   "
14.09, 472.968, 0.0236413, NaN, NaN, NaN, 0.0384545, "- N/A -   "
14.21, 477.445, 0.0238301, NaN, NaN, NaN, 0.0445584, "- N/A -   "
14.33, 482.04, 0.02403, NaN, NaN, NaN, 0.0433376, "- N/A -   "
14.45, 487.578, 0.0242605, NaN, NaN, NaN, 0.0299091, "- N/A -   "
14.57, 491.9378, 0.02445208, NaN, NaN, NaN, 0.0335714, "- N/A -   "
14.69, 496.415, 0.0246409, NaN, NaN, NaN, 0.0396753, "- N/A -   "
14.81, 501.01, 0.0248408, NaN, NaN, NaN, 0.0384545, "- N/A -   "
14.93, 505.488, 0.0250269, NaN, NaN, NaN, 0.0445584, "- N/A -   "
15.05, 511.026, 0.0252546, NaN, NaN, NaN, 0.0323506, "- N/A -   "
15.17, 515.6291, 0.0254573, NaN, NaN, NaN, 0.03112983, "- N/A -   "
15.29, 520.4786, 0.0256516, NaN, NaN, NaN, 0.0335714, "- N/A -   "
15.41, 525.2098, 0.0258488, NaN, NaN, NaN, 0.0347922, "- N/A -   "
15.53, 529.4679, 0.0260376, NaN, NaN, NaN, 0.04089605, "- N/A -   "
15.65, 534.4357, 0.0262403, NaN, NaN, NaN, 0.0384545, "- N/A -   "
15.77, 539.758, 0.0264541, NaN, NaN, NaN, 0.0335714, "- N/A -   "
15.89, 544.1347, 0.02664016, NaN, NaN, NaN, 0.0384545, "- N/A -   "
16.01, 549.103, 0.0268456, NaN, NaN, NaN, 0.03601294, "- N/A -   "
16.13, 553.952, 0.0270456, NaN, NaN, NaN, 0.03601294, "- N/A -   "
16.25, 558.565, 0.0272399, NaN, NaN, NaN, 0.0384545, "- N/A -   "
16.37, 563.178, 0.0274315, NaN, NaN, NaN, 0.04211683, "- N/A -   "
16.49, 568.7371, 0.0276564, NaN, NaN, NaN, 0.03112983, "- N/A -   "
16.61, 573.3501, 0.0278508, NaN, NaN, NaN, 0.0335714, "- N/A -   "
16.73, 578.554, 0.02806463, NaN, NaN, NaN, 0.0274675, "- N/A -   "
16.85, 582.8126, 0.0282423, NaN, NaN, NaN, 0.0372337, "- N/A -   "
16.97, 587.0707, 0.0284228, NaN, NaN, NaN, 0.04699994, "- N/A -   "
17.09, 592.5116, 0.02863942, NaN, NaN, NaN, 0.0396753, "- N/A -   "
17.21, 597.4794, 0.0288477, NaN, NaN, NaN, 0.03601294, "- N/A -   "
17.33, 602.9203, 0.0290643, NaN, NaN, NaN, 0.0286883, "- N/A -   "
17.45, 607.1784, 0.02924475, NaN, NaN, NaN, 0.0372337, "- N/A -   "
17.57, 611.5549, 0.0294252, NaN, NaN, NaN, 0.04577916, "- N/A -   "
17.69, 616.7592, 0.0296363, NaN, NaN, NaN, 0.04089605, "- N/A -   "
17.81, 622.2, 0.0298473, NaN, NaN, NaN, 0.03601294, "- N/A -   "
17.93, 627.523, 0.03006667, NaN, NaN, NaN, 0.0286883, "- N/A -   "
18.05, 632.491, 0.0302583, NaN, NaN, NaN, 0.0323506, "- N/A -   "
18.17, 637.103, 0.0304499, NaN, NaN, NaN, 0.0347922, "- N/A -   "
18.29, 641.598, 0.0306276, NaN, NaN, NaN, 0.0445584, "- N/A -   "
18.41, 646.9208, 0.0308386, NaN, NaN, NaN, 0.0396753, "- N/A -   "
18.53, 652.48, 0.0310607, NaN, NaN, NaN, 0.0299091, "- N/A -   "
18.65, 657.093, 0.031244, NaN, NaN, NaN, 0.0372337, "- N/A -   "
18.77, 662.2973, 0.031455, NaN, NaN, NaN, 0.0323506, "- N/A -   "
18.89, 666.6737, 0.0316355, NaN, NaN, NaN, 0.04089605, "- N/A -   "
19.01, 671.878, 0.03183824, NaN, NaN, NaN, 0.0396753, "- N/A -   "
19.13, 677.319, 0.032052, NaN, NaN, NaN, 0.0335714, "- N/A -   "
19.25, 682.1685, 0.0322492, NaN, NaN, NaN, 0.03601294, "- N/A -   "
19.37, 687.373, 0.0324519, NaN, NaN, NaN, 0.0335714, "- N/A -   "
19.49, 692.4589, 0.0326546, NaN, NaN, NaN, 0.0335714, "- N/A -   "
19.61, 697.3084, 0.0328462, NaN, NaN, NaN, 0.03601294, "- N/A -   "
19.73, 701.8031, 0.0330267, NaN, NaN, NaN, 0.0445584, "- N/A -   "
19.85, 707.3623, 0.0332405, NaN, NaN, NaN, 0.0384545, "- N/A -   "
19.97, 712.8032, 0.03345153, NaN, NaN, NaN, 0.0335714, "- N/A -   "
20.09, 718.126, 0.03365979, NaN, NaN, NaN, 0.03112983, "- N/A -   "
20.21, 722.975, 0.03385416, NaN, NaN, NaN, 0.0323506, "- N/A -   "
20.33, 727.115, 0.0340235, NaN, NaN, NaN, 0.04577916, "- N/A -   "
20.45, 732.6744, 0.0342346, NaN, NaN, NaN, 0.04089605, "- N/A -   "
20.57, 737.997, 0.0344456, NaN, NaN, NaN, 0.03601294, "- N/A -   "
20.69, 743.7928, 0.0346705, NaN, NaN, NaN, 0.0262467, "- N/A -   "
20.81, 748.761, 0.0348649, NaN, NaN, NaN, 0.0274675, "- N/A -   "
20.93, 753.137, 0.0350371, NaN, NaN, NaN, 0.0396753, "- N/A -   "
21.05, 758.1048, 0.03523143, NaN, NaN, NaN, 0.04211683, "- N/A -   "
21.17, 763.191, 0.0354314, NaN, NaN, NaN, 0.04211683, "- N/A -   "
21.29, 769.2232, 0.03565905, NaN, NaN, NaN, 0.0299091, "- N/A -   "
21.41, 774.191, 0.0358562, NaN, NaN, NaN, 0.0323506, "- N/A -   "
21.53, 779.159, 0.036045, NaN, NaN, NaN, 0.0372337, "- N/A -   "
21.65, 784.1266, 0.0362338, NaN, NaN, NaN, 0.04211683, "- N/A -   "
21.77, 789.213, 0.03642821, NaN, NaN, NaN, 0.0445584, "- N/A -   "
21.89, 795.1267, 0.03665868, NaN, NaN, NaN, 0.03112983, "- N/A -   "
22.01, 799.9762, 0.0368503, NaN, NaN, NaN, 0.0347922, "- N/A -   "
22.13, 805.4171, 0.0370585, NaN, NaN, NaN, 0.03112983, "- N/A -   "
22.25, 810.385, 0.0372474, NaN, NaN, NaN, 0.03601294, "- N/A -   "
22.37, 815.234, 0.0374389, NaN, NaN, NaN, 0.04089605, "- N/A -   "
22.49, 820.557, 0.0376417, NaN, NaN, NaN, 0.0384545, "- N/A -   "
22.61, 825.8797, 0.0378444, NaN, NaN, NaN, 0.0372337, "- N/A -   "
22.73, 831.3206, 0.0380526, NaN, NaN, NaN, 0.0335714, "- N/A -   "
22.85, 836.288, 0.03824698, NaN, NaN, NaN, 0.03601294, "- N/A -   "
22.97, 841.3745, 0.0384497, NaN, NaN, NaN, 0.0347922, "- N/A -   "
23.09, 846.224, 0.0386357, NaN, NaN, NaN, 0.04089605, "- N/A -   "
23.21, 851.5467, 0.0388357, NaN, NaN, NaN, 0.04089605, "- N/A -   "
23.33, 857.2241, 0.039055, NaN, NaN, NaN, 0.0323506, "- N/A -   "
23.45, 862.31, 0.03925494, NaN, NaN, NaN, 0.0323506, "- N/A -   "
23.57, 867.6329, 0.0394549, NaN, NaN, NaN, 0.0323506, "- N/A -   "
23.69, 872.3641, 0.03964091, NaN, NaN, NaN, 0.0384545, "- N/A -   "
23.81, 876.977, 0.039827, NaN, NaN, NaN, 0.0445584, "- N/A -   "
23.93, 882.7728, 0.04004076, NaN, NaN, NaN, 0.0384545, "- N/A -   "
24.05, 887.9772, 0.0402435, NaN, NaN, NaN, 0.0372337, "- N/A -   "
24.17, 893.773, 0.0404628, NaN, NaN, NaN, 0.0286883, "- N/A -   "
24.29, 898.504, 0.04064887, NaN, NaN, NaN, 0.0347922, "- N/A -   "
24.41, 903.117, 0.0408266, NaN, NaN, NaN, 0.04577916, "- N/A -   "
24.451, 904.8913, 0.040896, NaN, NaN, NaN, 0.0445584, "- N/A -   "