File: 2_Tensile_Data/Hamel_ForceTest_Bolt9_Test9.csv
Time, Load (lb), Position (in), AxialStrain (in), TransverseStrain (in), Auxiliary (), Control Out (V), Stress (psi)
0.0, 14.9793, 0.0, NaN, NaN, NaN, -0.006714277, "- N/A -   "
0.01, 14.9793, 2.776752E-6, NaN, NaN, NaN, 0.01037661, "- N/A -   "
0.02, 15.0973, 5.553504E-6, NaN, NaN, NaN, 0.0286883, "- N/A -   "
0.03, 15.2152, 1.1107e-05, NaN, NaN, NaN, 0.04577916, "- N/A -   "
0.04, 15.4511, 2.49908e-05, NaN, NaN, NaN, 0.0604285, "- N/A -   "
0.05, 15.805, 3.88745e-05, NaN, NaN, NaN, 0.07263627, "- N/A -   "
0.06, 16.0409, 5.83118e-05, NaN, NaN, NaN, 0.08362327, "- N/A -   "
0.07, 16.5126, 8.33026e-05, NaN, NaN, NaN, 0.09216871, "- N/A -   "
0.08, 16.9844, 0.00011107, NaN, NaN, NaN, 0.100714, "- N/A -   "
0.09, 17.5742, 1.388376E-4, NaN, NaN, NaN, 0.106818, "- N/A -   "
0.1, 18.046, 0.000172159, NaN, NaN, NaN, 0.108039, "- N/A -   "
0.11, 18.5178, 0.000202703, NaN, NaN, NaN, 0.100714, "- N/A -   "
0.12, 19.1075, 2.304704E-4, NaN, NaN, NaN, 0.095831, "- N/A -   "
0.13, 19.4613, 2.582379E-4, NaN, NaN, NaN, 0.09094793, "- N/A -   "
0.14, 19.8152, 2.832287E-4, NaN, NaN, NaN, 0.0872856, "- N/A -   "
0.15, 20.169, 0.000308219, NaN, NaN, NaN, 0.084844, "- N/A -   "
0.16, 20.52286, 0.000330433, NaN, NaN, NaN, 0.08240249, "- N/A -   "
0.17, 20.99465, 0.000349871, NaN, NaN, NaN, 0.0799609, "- N/A -   "
0.18, 21.3485, 0.000372085, NaN, NaN, NaN, 0.07751938, "- N/A -   "
0.19, 21.5844, 0.000391522, NaN, NaN, NaN, 0.0762986, "- N/A -   "
0.2, 21.93823, 4.13736E-4, NaN, NaN, NaN, 0.07385705, "- N/A -   "
0.21, 22.41, 4.387268E-4, NaN, NaN, NaN, 0.07141549, "- N/A -   "
0.22, 22.7639, 4.609408E-4, NaN, NaN, NaN, 0.06775316, "- N/A -   "
0.23, 23.1177, 0.000485932, NaN, NaN, NaN, 0.0653116, "- N/A -   "
0.24, 23.3536, 5.081456E-4, NaN, NaN, NaN, 0.06287005, "- N/A -   "
0.25, 23.82539, 0.00053036, NaN, NaN, NaN, 0.0592077, "- N/A -   "
0.26, 24.1792, 5.525736E-4, NaN, NaN, NaN, 0.0579869, "- N/A -   "
0.27, 24.5331, 5.747876E-4, NaN, NaN, NaN, 0.0555454, "- N/A -   "
0.28, 25.0049, 0.000597002, NaN, NaN, NaN, 0.0531038, "- N/A -   "
0.29, 25.2408, 0.000619216, NaN, NaN, NaN, 0.0494415, "- N/A -   "
0.3, 25.4767, 6.414297E-4, NaN, NaN, NaN, 0.0482207, "- N/A -   "
0.31, 25.9484, 6.608669E-4, NaN, NaN, NaN, 0.04699994, "- N/A -   "
0.35, 27.1279, 0.000735839, NaN, NaN, NaN, 0.04211683, "- N/A -   "
0.39, 28.42534, 0.000813588, NaN, NaN, NaN, 0.0372337, "- N/A -   "
0.43, 29.6048, 0.000891337, NaN, NaN, NaN, 0.0323506, "- N/A -   "
0.47, 30.6663, 9.635329E-4, NaN, NaN, NaN, 0.0299091, "- N/A -   "
0.51, 31.8458, 0.00103295, NaN, NaN, NaN, 0.0286883, "- N/A -   "
0.55, 32.7894, 0.00109404, NaN, NaN, NaN, 0.03112983, "- N/A -   "
0.59, 33.73298, 0.00115513, NaN, NaN, NaN, 0.0335714, "- N/A -   "
0.63, 34.6766, 0.00121066, NaN, NaN, NaN, 0.0384545, "- N/A -   "
0.67, 35.50219, 0.00127175, NaN, NaN, NaN, 0.04089605, "- N/A -   "
0.71, 36.5637, 0.00133006, NaN, NaN, NaN, 0.04577916, "- N/A -   "
0.75, 37.3893, 0.00139393, NaN, NaN, NaN, 0.04577916, "- N/A -   "
0.79, 38.4509, 0.00146057, NaN, NaN, NaN, 0.04577916, "- N/A -   "
0.83, 39.6304, 0.00152721, NaN, NaN, NaN, 0.04577916, "- N/A -   "
0.87, 40.57393, 0.001599409, NaN, NaN, NaN, 0.0433376, "- N/A -   "
0.91, 41.7534, 0.00166883, NaN, NaN, NaN, 0.04211683, "- N/A -   "
0.95, 42.93288, 0.00175213, NaN, NaN, NaN, 0.03601294, "- N/A -   "
0.99, 44.34825, 0.00183266, NaN, NaN, NaN, 0.0286883, "- N/A -   "
1.03, 45.40978, 0.001902075, NaN, NaN, NaN, 0.0274675, "- N/A -   "
1.07, 46.3534, 0.001968717, NaN, NaN, NaN, 0.0274675, "- N/A -   "
1.11, 47.5328, 0.00203258, NaN, NaN, NaN, 0.0286883, "- N/A -   "
1.15, 48.47641, 0.00209645, NaN, NaN, NaN, 0.0299091, "- N/A -   "
1.19, 49.5379, 0.002157536, NaN, NaN, NaN, 0.0323506, "- N/A -   "
1.23, 50.4815, 0.00221862, NaN, NaN, NaN, 0.0347922, "- N/A -   "
1.27, 51.4251, 0.00227971, NaN, NaN, NaN, 0.0372337, "- N/A -   "
1.31, 52.48662, 0.00234636, NaN, NaN, NaN, 0.0372337, "- N/A -   "
1.35, 53.6661, 0.002413, NaN, NaN, NaN, 0.0372337, "- N/A -   "
1.39, 54.6097, 0.00247409, NaN, NaN, NaN, 0.0396753, "- N/A -   "
1.43, 55.55326, 0.00253795, NaN, NaN, NaN, 0.04089605, "- N/A -   "
1.47, 56.6148, 0.00259904, NaN, NaN, NaN, 0.0445584, "- N/A -   "
1.51, 57.5584, 0.00266013, NaN, NaN, NaN, 0.04577916, "- N/A -   "
1.55, 58.8558, 0.0027351, NaN, NaN, NaN, 0.04211683, "- N/A -   "
1.59, 60.27116, 0.00281007, NaN, NaN, NaN, 0.0396753, "- N/A -   "
1.63, 61.45063, 0.00288227, NaN, NaN, NaN, 0.03601294, "- N/A -   "
1.67, 62.7481, 0.002954464, NaN, NaN, NaN, 0.0335714, "- N/A -   "
1.71, 63.80958, 0.003021106, NaN, NaN, NaN, 0.0347922, "- N/A -   "
1.75, 64.75317, 0.00308219, NaN, NaN, NaN, 0.0372337, "- N/A -   "
1.79, 65.81469, 0.00314606, NaN, NaN, NaN, 0.0372337, "- N/A -   "
1.83, 66.99416, 0.003212702, NaN, NaN, NaN, 0.0372337, "- N/A -   "
1.87, 68.17364, 0.00328767, NaN, NaN, NaN, 0.0347922, "- N/A -   "
1.91, 69.47106, 0.00335987, NaN, NaN, NaN, 0.0323506, "- N/A -   "
1.95, 70.6505, 0.003426512, NaN, NaN, NaN, 0.0323506, "- N/A -   "
1.99, 71.59412, 0.00348482, NaN, NaN, NaN, 0.0347922, "- N/A -   "
2.03, 72.5377, 0.00354591, NaN, NaN, NaN, 0.0372337, "- N/A -   "
2.07, 73.59922, 0.00360422, NaN, NaN, NaN, 0.04089605, "- N/A -   "
2.11, 74.66075, 0.00367087, NaN, NaN, NaN, 0.04211683, "- N/A -   "
2.15, 75.8402, 0.00374028, NaN, NaN, NaN, 0.0396753, "- N/A -   "
2.19, 77.0197, 0.00380693, NaN, NaN, NaN, 0.0396753, "- N/A -   "
2.23, 78.31712, 0.00387912, NaN, NaN, NaN, 0.0372337, "- N/A -   "
2.27, 79.4966, 0.00395132, NaN, NaN, NaN, 0.03601294, "- N/A -   "
2.31, 80.794, 0.00402074, NaN, NaN, NaN, 0.0335714, "- N/A -   "
2.35, 81.97349, 0.00409016, NaN, NaN, NaN, 0.0335714, "- N/A -   "
2.39, 83.03502, 0.004154021, NaN, NaN, NaN, 0.0347922, "- N/A -   "
2.43, 84.09654, 0.004217886, NaN, NaN, NaN, 0.0347922, "- N/A -   "
2.47, 85.39397, 0.004287305, NaN, NaN, NaN, 0.0335714, "- N/A -   "
2.51, 86.4555, 0.0043595, NaN, NaN, NaN, 0.0323506, "- N/A -   "
2.55, 87.75292, 0.00442614, NaN, NaN, NaN, 0.0323506, "- N/A -   "
2.59, 88.8144, 0.00449001, NaN, NaN, NaN, 0.0323506, "- N/A -   "
2.63, 89.87598, 0.004553873, NaN, NaN, NaN, 0.0335714, "- N/A -   "
2.67, 91.05545, 0.004620515, NaN, NaN, NaN, 0.0335714, "- N/A -   "
2.71, 92.35287, 0.00468993, NaN, NaN, NaN, 0.0323506, "- N/A -   "
2.75, 93.2965, 0.00474825, NaN, NaN, NaN, 0.03601294, "- N/A -   "
2.79, 94.35797, 0.004812111, NaN, NaN, NaN, 0.0372337, "- N/A -   "
2.83, 95.41951, 0.0048732, NaN, NaN, NaN, 0.0396753, "- N/A -   "
2.87, 96.481, 0.00493151, NaN, NaN, NaN, 0.0433376, "- N/A -   "
2.91, 97.6605, 0.004995377, NaN, NaN, NaN, 0.0445584, "- N/A -   "
2.95, 98.83998, 0.005062019, NaN, NaN, NaN, 0.0445584, "- N/A -   "
2.99, 100.137, 0.005136991, NaN, NaN, NaN, 0.04211683, "- N/A -   "
3.03, 101.553, 0.00521196, NaN, NaN, NaN, 0.0384545, "- N/A -   "
3.07, 102.968, 0.005284159, NaN, NaN, NaN, 0.0347922, "- N/A -   "
3.11, 104.03, 0.00534802, NaN, NaN, NaN, 0.03601294, "- N/A -   "
3.15, 105.091, 0.005414666, NaN, NaN, NaN, 0.0372337, "- N/A -   "
3.19, 106.507, 0.005484085, NaN, NaN, NaN, 0.03601294, "- N/A -   "
3.23, 107.804, 0.00555628, NaN, NaN, NaN, 0.0323506, "- N/A -   "
3.27, 109.219, 0.00563403, NaN, NaN, NaN, 0.0286883, "- N/A -   "
3.31, 110.399, 0.00569512, NaN, NaN, NaN, 0.0299091, "- N/A -   "
3.35, 111.696, 0.00575898, NaN, NaN, NaN, 0.0323506, "- N/A -   "
3.39, 112.64, 0.00582285, NaN, NaN, NaN, 0.0335714, "- N/A -   "
3.43, 113.583, 0.005875607, NaN, NaN, NaN, 0.0384545, "- N/A -   "
3.47, 114.763, 0.005931142, NaN, NaN, NaN, 0.0433376, "- N/A -   "
3.51, 115.942, 0.00599223, NaN, NaN, NaN, 0.04699994, "- N/A -   "
3.55, 117.24, 0.006056096, NaN, NaN, NaN, 0.04699994, "- N/A -   "
3.59, 118.655, 0.006131068, NaN, NaN, NaN, 0.0445584, "- N/A -   "
3.63, 120.188, 0.006208817, NaN, NaN, NaN, 0.0396753, "- N/A -   "
3.67, 121.604, 0.00628101, NaN, NaN, NaN, 0.0372337, "- N/A -   "
3.71, 122.901, 0.00635321, NaN, NaN, NaN, 0.0347922, "- N/A -   "
3.75, 124.199, 0.006425404, NaN, NaN, NaN, 0.0323506, "- N/A -   "
3.79, 125.496, 0.006492046, NaN, NaN, NaN, 0.0323506, "- N/A -   "
3.83, 126.911, 0.006564242, NaN, NaN, NaN, 0.03112983, "- N/A -   "
3.87, 128.091, 0.006636437, NaN, NaN, NaN, 0.0286883, "- N/A -   "
3.91, 129.506, 0.006703079, NaN, NaN, NaN, 0.0286883, "- N/A -   "
3.95, 130.6858, 0.006766944, NaN, NaN, NaN, 0.0286883, "- N/A -   "
3.99, 131.629, 0.006825256, NaN, NaN, NaN, 0.0323506, "- N/A -   "
4.03, 132.6909, 0.00688079, NaN, NaN, NaN, 0.0372337, "- N/A -   "
4.07, 133.752, 0.0069391, NaN, NaN, NaN, 0.04089605, "- N/A -   "
4.11, 134.814, 0.00700019, NaN, NaN, NaN, 0.0433376, "- N/A -   "
4.15, 135.993, 0.007064057, NaN, NaN, NaN, 0.04577916, "- N/A -   "
4.19, 137.291, 0.00713348, NaN, NaN, NaN, 0.0445584, "- N/A -   "
4.23, 138.352, 0.00719734, NaN, NaN, NaN, 0.04577916, "- N/A -   "
4.27, 139.65, 0.00726121, NaN, NaN, NaN, 0.04577916, "- N/A -   "
4.31, 140.829, 0.0073334, NaN, NaN, NaN, 0.0445584, "- N/A -   "
4.35, 142.1267, 0.00740282, NaN, NaN, NaN, 0.04211683, "- N/A -   "
4.39, 143.542, 0.00748057, NaN, NaN, NaN, 0.0384545, "- N/A -   "
4.43, 145.0754, 0.007558319, NaN, NaN, NaN, 0.0323506, "- N/A -   "
4.47, 146.137, 0.00762774, NaN, NaN, NaN, 0.03112983, "- N/A -   "
4.51, 147.434, 0.0076916, NaN, NaN, NaN, 0.0323506, "- N/A -   "
4.55, 148.378, 0.007755468, NaN, NaN, NaN, 0.0335714, "- N/A -   "
4.59, 149.793, 0.00782211, NaN, NaN, NaN, 0.0347922, "- N/A -   "
4.63, 150.973, 0.007885976, NaN, NaN, NaN, 0.0347922, "- N/A -   "
4.67, 152.152, 0.007949841, NaN, NaN, NaN, 0.03601294, "- N/A -   "
4.71, 153.332, 0.008016483, NaN, NaN, NaN, 0.03601294, "- N/A -   "
4.75, 154.511, 0.008080348, NaN, NaN, NaN, 0.0372337, "- N/A -   "
4.79, 155.691, 0.008144213, NaN, NaN, NaN, 0.0396753, "- N/A -   "
4.83, 156.87, 0.008202525, NaN, NaN, NaN, 0.0433376, "- N/A -   "
4.87, 157.932, 0.008263614, NaN, NaN, NaN, 0.0445584, "- N/A -   "
4.91, 159.229, 0.008330256, NaN, NaN, NaN, 0.0445584, "- N/A -   "
4.95, 160.5265, 0.008402451, NaN, NaN, NaN, 0.0433376, "- N/A -   "
4.99, 162.06, 0.008480201, NaN, NaN, NaN, 0.0372337, "- N/A -   "
5.03, 163.475, 0.008555172, NaN, NaN, NaN, 0.0335714, "- N/A -   "
5.07, 164.773, 0.008624592, NaN, NaN, NaN, 0.0323506, "- N/A -   "
5.11, 166.188, 0.008696787, NaN, NaN, NaN, 0.0299091, "- N/A -   "
5.15, 167.25, 0.00876065, NaN, NaN, NaN, 0.03112983, "- N/A -   "
5.19, 168.311, 0.008821741, NaN, NaN, NaN, 0.0347922, "- N/A -   "
5.23, 169.608, 0.00888283, NaN, NaN, NaN, 0.03601294, "- N/A -   "
5.27, 171.024, 0.008955025, NaN, NaN, NaN, 0.0335714, "- N/A -   "
5.31, 172.4392, 0.00902722, NaN, NaN, NaN, 0.03112983, "- N/A -   "
5.35, 173.737, 0.009091086, NaN, NaN, NaN, 0.0323506, "- N/A -   "
5.39, 174.6802, 0.009152175, NaN, NaN, NaN, 0.0347922, "- N/A -   "
5.43, 175.86, 0.009210486, NaN, NaN, NaN, 0.0384545, "- N/A -   "
5.47, 176.9212, 0.009271575, NaN, NaN, NaN, 0.04089605, "- N/A -   "
5.51, 178.1007, 0.00933544, NaN, NaN, NaN, 0.04211683, "- N/A -   "
5.55, 179.3981, 0.009404859, NaN, NaN, NaN, 0.04089605, "- N/A -   "
5.59, 180.813, 0.009471501, NaN, NaN, NaN, 0.04089605, "- N/A -   "
5.63, 182.1109, 0.00954092, NaN, NaN, NaN, 0.0396753, "- N/A -   "
5.67, 183.408, 0.009610338, NaN, NaN, NaN, 0.0384545, "- N/A -   "
5.71, 184.706, 0.00967698, NaN, NaN, NaN, 0.0384545, "- N/A -   "
5.75, 186.003, 0.00974362, NaN, NaN, NaN, 0.0384545, "- N/A -   "
5.79, 187.183, 0.009807488, NaN, NaN, NaN, 0.0396753, "- N/A -   "
5.83, 188.48, 0.009879684, NaN, NaN, NaN, 0.0384545, "- N/A -   "
5.87, 190.013, 0.009951878, NaN, NaN, NaN, 0.0347922, "- N/A -   "
5.91, 191.193, 0.0100213, NaN, NaN, NaN, 0.0347922, "- N/A -   "
5.95, 192.372, 0.01008794, NaN, NaN, NaN, 0.0347922, "- N/A -   "
5.99, 193.7877, 0.0101574, NaN, NaN, NaN, 0.0323506, "- N/A -   "
6, 194.142, 0.010174, NaN, NaN, NaN, 0.0323506, "- N/A -   "
6.01, 194.377, 0.01019068, NaN, NaN, NaN, 0.0335714, "- N/A -   "
6.03, 195.085, 0.0102212, NaN, NaN, NaN, 0.0335714, "- N/A -   "
6.05, 195.5569, 0.0102545, NaN, NaN, NaN, 0.0335714, "- N/A -   "
6.07, 196.265, 0.0102879, NaN, NaN, NaN, 0.0335714, "- N/A -   "
6.09, 196.972, 0.010324, NaN, NaN, NaN, 0.0323506, "- N/A -   "
6.11, 197.562, 0.0103545, NaN, NaN, NaN, 0.0335714, "- N/A -   "
6.13, 198.152, 0.0103878, NaN, NaN, NaN, 0.0335714, "- N/A -   "
6.15, 198.741, 0.0104184, NaN, NaN, NaN, 0.0347922, "- N/A -   "
6.17, 199.213, 0.0104461, NaN, NaN, NaN, 0.0372337, "- N/A -   "
6.19, 199.921, 0.0104767, NaN, NaN, NaN, 0.0384545, "- N/A -   "
6.21, 200.5107, 0.0105072, NaN, NaN, NaN, 0.0396753, "- N/A -   "
6.23, 200.9825, 0.0105378, NaN, NaN, NaN, 0.04089605, "- N/A -   "
6.25, 201.572, 0.0105683, NaN, NaN, NaN, 0.04211683, "- N/A -   "
6.27, 202.28, 0.0106016, NaN, NaN, NaN, 0.04211683, "- N/A -   "
6.29, 202.87, 0.0106322, NaN, NaN, NaN, 0.0433376, "- N/A -   "
6.31, 203.459, 0.0106627, NaN, NaN, NaN, 0.0445584, "- N/A -   "
6.33, 204.167, 0.0106988, NaN, NaN, NaN, 0.0433376, "- N/A -   "
6.35, 204.9927, 0.0107349, NaN, NaN, NaN, 0.04211683, "- N/A -   "
6.37, 205.582, 0.01077102, NaN, NaN, NaN, 0.04089605, "- N/A -   "
6.39, 206.29, 0.0108071, NaN, NaN, NaN, 0.0396753, "- N/A -   "
6.41, 206.9978, 0.010846, NaN, NaN, NaN, 0.0384545, "- N/A -   "
6.43, 207.823, 0.0108821, NaN, NaN, NaN, 0.03601294, "- N/A -   "
6.45, 208.649, 0.0109237, NaN, NaN, NaN, 0.0323506, "- N/A -   "
6.47, 209.239, 0.0109598, NaN, NaN, NaN, 0.03112983, "- N/A -   "
6.49, 209.829, 0.0109932, NaN, NaN, NaN, 0.03112983, "- N/A -   "
6.51, 210.536, 0.0110265, NaN, NaN, NaN, 0.03112983, "- N/A -   "
6.53, 211.126, 0.0110598, NaN, NaN, NaN, 0.0323506, "- N/A -   "
6.55, 211.716, 0.0110903, NaN, NaN, NaN, 0.0323506, "- N/A -   "
6.57, 212.4234, 0.0111237, NaN, NaN, NaN, 0.0323506, "- N/A -   "
6.59, 212.895, 0.0111542, NaN, NaN, NaN, 0.0335714, "- N/A -   "
6.61, 213.485, 0.0111875, NaN, NaN, NaN, 0.0335714, "- N/A -   "
6.63, 214.1926, 0.0112236, NaN, NaN, NaN, 0.0335714, "- N/A -   "
6.65, 215.018, 0.0112625, NaN, NaN, NaN, 0.03112983, "- N/A -   "
6.67, 215.726, 0.0112986, NaN, NaN, NaN, 0.0299091, "- N/A -   "
6.69, 216.434, 0.0113347, NaN, NaN, NaN, 0.0286883, "- N/A -   "
6.71, 217.141, 0.011368, NaN, NaN, NaN, 0.0274675, "- N/A -   "
6.73, 217.613, 0.0113986, NaN, NaN, NaN, 0.0286883, "- N/A -   "
6.75, 218.203, 0.0114291, NaN, NaN, NaN, 0.0299091, "- N/A -   "
6.77, 218.793, 0.0114597, NaN, NaN, NaN, 0.03112983, "- N/A -   "
6.79, 219.5, 0.0114902, NaN, NaN, NaN, 0.0323506, "- N/A -   "
6.81, 219.972, 0.011518, NaN, NaN, NaN, 0.0347922, "- N/A -   "
6.83, 220.326, 0.0115457, NaN, NaN, NaN, 0.0372337, "- N/A -   "
6.85, 220.916, 0.0115707, NaN, NaN, NaN, 0.04089605, "- N/A -   "
6.87, 221.505, 0.0116013, NaN, NaN, NaN, 0.04211683, "- N/A -   "
6.89, 221.977, 0.0116318, NaN, NaN, NaN, 0.0433376, "- N/A -   "
6.91, 222.685, 0.0116624, NaN, NaN, NaN, 0.0445584, "- N/A -   "
6.93, 223.275, 0.0116957, NaN, NaN, NaN, 0.0445584, "- N/A -   "
6.95, 223.982, 0.0117262, NaN, NaN, NaN, 0.04577916, "- N/A -   "
6.97, 224.572, 0.0117595, NaN, NaN, NaN, 0.04577916, "- N/A -   "
6.99, 225.162, 0.0117956, NaN, NaN, NaN, 0.0445584, "- N/A -   "
7.01, 225.987, 0.01183174, NaN, NaN, NaN, 0.0433376, "- N/A -   "
7.03, 226.813, 0.0118706, NaN, NaN, NaN, 0.04089605, "- N/A -   "
7.05, 227.521, 0.0119067, NaN, NaN, NaN, 0.0396753, "- N/A -   "
7.07, 228.228, 0.0119456, NaN, NaN, NaN, 0.0372337, "- N/A -   "
7.09, 228.936, 0.0119817, NaN, NaN, NaN, 0.0372337, "- N/A -   "
7.11, 229.644, 0.012015, NaN, NaN, NaN, 0.03601294, "- N/A -   "
7.13, 230.351, 0.0120483, NaN, NaN, NaN, 0.03601294, "- N/A -   "
7.15, 230.941, 0.0120844, NaN, NaN, NaN, 0.0347922, "- N/A -   "
7.17, 231.531, 0.012115, NaN, NaN, NaN, 0.03601294, "- N/A -   "
7.19, 232.239, 0.01214829, NaN, NaN, NaN, 0.03601294, "- N/A -   "
7.21, 233.0642, 0.0121844, NaN, NaN, NaN, 0.0347922, "- N/A -   "
7.23, 233.654, 0.0122233, NaN, NaN, NaN, 0.0323506, "- N/A -   "
7.25, 234.362, 0.0122594, NaN, NaN, NaN, 0.03112983, "- N/A -   "
7.27, 235.187, 0.0122955, NaN, NaN, NaN, 0.0299091, "- N/A -   "
7.29, 235.777, 0.0123288, NaN, NaN, NaN, 0.0299091, "- N/A -   "
7.31, 236.485, 0.0123621, NaN, NaN, NaN, 0.0299091, "- N/A -   "
7.33, 237.192, 0.01239542, NaN, NaN, NaN, 0.0299091, "- N/A -   "
7.35, 237.7821, 0.0124315, NaN, NaN, NaN, 0.0286883, "- N/A -   "
7.37, 238.49, 0.01246484, NaN, NaN, NaN, 0.0286883, "- N/A -   "
7.39, 239.197, 0.01249816, NaN, NaN, NaN, 0.0286883, "- N/A -   "
7.41, 239.669, 0.0125287, NaN, NaN, NaN, 0.0299091, "- N/A -   "
7.43, 240.377, 0.0125592, NaN, NaN, NaN, 0.0323506, "- N/A -   "
7.45, 240.849, 0.012587, NaN, NaN, NaN, 0.0335714, "- N/A -   "
7.47, 241.556, 0.0126148, NaN, NaN, NaN, 0.03601294, "- N/A -   "
7.49, 241.91, 0.0126398, NaN, NaN, NaN, 0.0396753, "- N/A -   "
7.51, 242.5, 0.0126703, NaN, NaN, NaN, 0.04089605, "- N/A -   "
7.53, 243.207, 0.0127009, NaN, NaN, NaN, 0.0433376, "- N/A -   "
7.55, 243.7961, 0.0127314, NaN, NaN, NaN, 0.0433376, "- N/A -   "
7.57, 244.503, 0.0127647, NaN, NaN, NaN, 0.0433376, "- N/A -   "
7.59, 245.092, 0.012798, NaN, NaN, NaN, 0.0433376, "- N/A -   "
7.61, 245.6813, 0.01283137, NaN, NaN, NaN, 0.0433376, "- N/A -   "
7.63, 246.388, 0.0128647, NaN, NaN, NaN, 0.0433376, "- N/A -   "
7.65, 247.213, 0.012898, NaN, NaN, NaN, 0.0433376, "- N/A -   "
7.67, 247.802, 0.0129313, NaN, NaN, NaN, 0.0433376, "- N/A -   "
[...]
24.57, 924.6442, 0.0410987, NaN, NaN, NaN, 0.0433376, "- N/A -   "
24.7, 930.44, 0.04131529, NaN, NaN, NaN, 0.0433376, "- N/A -   "
24.83, 936.709, 0.04154299, NaN, NaN, NaN, 0.0384545, "- N/A -   "
24.96, 942.9778, 0.04177623, NaN, NaN, NaN, 0.03112983, "- N/A -   "
25.09, 948.4187, 0.04198449, NaN, NaN, NaN, 0.0347922, "- N/A -   "
25.22, 953.978, 0.04219552, NaN, NaN, NaN, 0.0384545, "- N/A -   "
25.35, 959.182, 0.04239267, NaN, NaN, NaN, 0.04577916, "- N/A -   "
25.48, 965.8059, 0.042637, NaN, NaN, NaN, 0.0347922, "- N/A -   "
25.61, 971.72, 0.0428592, NaN, NaN, NaN, 0.03112983, "- N/A -   "
25.74, 977.397, 0.0430702, NaN, NaN, NaN, 0.0335714, "- N/A -   "
25.87, 983.3115, 0.04328678, NaN, NaN, NaN, 0.0335714, "- N/A -   "
26, 988.634, 0.0434895, NaN, NaN, NaN, 0.0396753, "- N/A -   "
26.13, 994.548, 0.0437061, NaN, NaN, NaN, 0.0396753, "- N/A -   "
26.26, 1000.58, 0.04393099, NaN, NaN, NaN, 0.0372337, "- N/A -   "
26.39, 1006.61, 0.0441504, NaN, NaN, NaN, 0.03601294, "- N/A -   "
26.52, 1012.41, 0.0443669, NaN, NaN, NaN, 0.03601294, "- N/A -   "
26.65, 1018.01, 0.044578, NaN, NaN, NaN, 0.0396753, "- N/A -   "
26.78, 1023.61, 0.0447807, NaN, NaN, NaN, 0.04577916, "- N/A -   "
26.91, 1030.17, 0.0450195, NaN, NaN, NaN, 0.03601294, "- N/A -   "
27.04, 1036.25, 0.0452444, NaN, NaN, NaN, 0.0323506, "- N/A -   "
27.17, 1042.34, 0.0454665, NaN, NaN, NaN, 0.0286883, "- N/A -   "
27.3, 1047.7, 0.0456665, NaN, NaN, NaN, 0.03601294, "- N/A -   "
27.43, 1052.83, 0.04585806, NaN, NaN, NaN, 0.04699994, "- N/A -   "
27.56, 1058.912, 0.04607742, NaN, NaN, NaN, 0.04699994, "- N/A -   "
27.69, 1065.35, 0.04631622, NaN, NaN, NaN, 0.03601294, "- N/A -   "
27.82, 1071.91, 0.046555, NaN, NaN, NaN, 0.0274675, "- N/A -   "
27.95, 1077.04, 0.04674384, NaN, NaN, NaN, 0.0384545, "- N/A -   "
28.08, 1082.4, 0.0469465, NaN, NaN, NaN, 0.0445584, "- N/A -   "
28.21, 1088.61, 0.0471742, NaN, NaN, NaN, 0.04089605, "- N/A -   "
28.34, 1095.52, 0.04742137, NaN, NaN, NaN, 0.0262467, "- N/A -   "
28.47, 1100.89, 0.04762407, NaN, NaN, NaN, 0.0323506, "- N/A -   "
28.6, 1106.61, 0.04783233, NaN, NaN, NaN, 0.0372337, "- N/A -   "
28.73, 1112.1, 0.04803503, NaN, NaN, NaN, 0.04211683, "- N/A -   "
28.86, 1118.42, 0.0482572, NaN, NaN, NaN, 0.0396753, "- N/A -   "
28.99, 1124.74, 0.0484932, NaN, NaN, NaN, 0.0323506, "- N/A -   "
29.12, 1130.22, 0.0486959, NaN, NaN, NaN, 0.0372337, "- N/A -   "
29.25, 1136.545, 0.0489208, NaN, NaN, NaN, 0.0335714, "- N/A -   "
29.38, 1141.67, 0.049118, NaN, NaN, NaN, 0.0433376, "- N/A -   "
29.51, 1147.874, 0.0493373, NaN, NaN, NaN, 0.04089605, "- N/A -   "
29.64, 1154.31, 0.0495706, NaN, NaN, NaN, 0.0335714, "- N/A -   "
29.77, 1160.28, 0.04978994, NaN, NaN, NaN, 0.0323506, "- N/A -   "
29.9, 1166.24, 0.0500065, NaN, NaN, NaN, 0.0335714, "- N/A -   "
30.03, 1172.08, 0.0502176, NaN, NaN, NaN, 0.0347922, "- N/A -   "
30.16, 1177.45, 0.0504175, NaN, NaN, NaN, 0.04211683, "- N/A -   "
30.29, 1183.53, 0.0506396, NaN, NaN, NaN, 0.04089605, "- N/A -   "
30.42, 1189.97, 0.0508701, NaN, NaN, NaN, 0.0347922, "- N/A -   "
30.55, 1196.171, 0.051095, NaN, NaN, NaN, 0.03112983, "- N/A -   "
30.68, 1201.9, 0.0513033, NaN, NaN, NaN, 0.0335714, "- N/A -   "
30.81, 1207.023, 0.0514949, NaN, NaN, NaN, 0.04699994, "- N/A -   "
30.94, 1213.46, 0.0517226, NaN, NaN, NaN, 0.04089605, "- N/A -   "
31.07, 1219.783, 0.05195303, NaN, NaN, NaN, 0.0347922, "- N/A -   "
31.2, 1226.34, 0.0521891, NaN, NaN, NaN, 0.0274675, "- N/A -   "
31.33, 1231.59, 0.0523862, NaN, NaN, NaN, 0.03601294, "- N/A -   "
31.46, 1236.96, 0.0525778, NaN, NaN, NaN, 0.04577916, "- N/A -   "
31.59, 1243.16, 0.0527999, NaN, NaN, NaN, 0.0433376, "- N/A -   "
31.72, 1249.83, 0.0530415, NaN, NaN, NaN, 0.0323506, "- N/A -   "
31.85, 1255.92, 0.0532609, NaN, NaN, NaN, 0.03112983, "- N/A -   "
31.98, 1261.28, 0.053458, NaN, NaN, NaN, 0.04089605, "- N/A -   "
32.11, 1267.25, 0.0536718, NaN, NaN, NaN, 0.04211683, "- N/A -   "
32.24, 1272.97, 0.05388009, NaN, NaN, NaN, 0.0445584, "- N/A -   "
32.37, 1280.01, 0.0541272, NaN, NaN, NaN, 0.03112983, "- N/A -   "
32.5, 1285.73, 0.0543383, NaN, NaN, NaN, 0.0335714, "- N/A -   "
32.63, 1292.05, 0.0545632, NaN, NaN, NaN, 0.0299091, "- N/A -   "
32.76, 1297.18, 0.0547548, NaN, NaN, NaN, 0.04089605, "- N/A -   "
32.89, 1303.02, 0.0549658, NaN, NaN, NaN, 0.0433376, "- N/A -   "
33.02, 1309.46, 0.0551935, NaN, NaN, NaN, 0.0384545, "- N/A -   "
33.15, 1315.66, 0.0554156, NaN, NaN, NaN, 0.03601294, "- N/A -   "
33.28, 1321.74, 0.05563778, NaN, NaN, NaN, 0.0335714, "- N/A -   "
33.41, 1327.71, 0.05585436, NaN, NaN, NaN, 0.0335714, "- N/A -   "
33.54, 1333.07, 0.05605429, NaN, NaN, NaN, 0.04089605, "- N/A -   "
33.67, 1338.92, 0.05626532, NaN, NaN, NaN, 0.0433376, "- N/A -   "
33.8, 1345.713, 0.0565097, NaN, NaN, NaN, 0.0323506, "- N/A -   "
33.93, 1351.79, 0.0567263, NaN, NaN, NaN, 0.03112983, "- N/A -   "
34.06, 1357.88, 0.05694563, NaN, NaN, NaN, 0.0299091, "- N/A -   "
34.19, 1362.766, 0.0571317, NaN, NaN, NaN, 0.0445584, "- N/A -   "
34.32, 1369.09, 0.057351, NaN, NaN, NaN, 0.04211683, "- N/A -   "
34.45, 1375.41, 0.0575815, NaN, NaN, NaN, 0.03601294, "- N/A -   "
34.58, 1381.97, 0.05781475, NaN, NaN, NaN, 0.0286883, "- N/A -   "
34.71, 1387.45, 0.0580202, NaN, NaN, NaN, 0.0335714, "- N/A -   "
34.84, 1392.82, 0.0582174, NaN, NaN, NaN, 0.04211683, "- N/A -   "
34.97, 1398.78, 0.058434, NaN, NaN, NaN, 0.0433376, "- N/A -   "
35.1, 1405.58, 0.0586728, NaN, NaN, NaN, 0.0323506, "- N/A -   "
35.23, 1411.9, 0.05890324, NaN, NaN, NaN, 0.0274675, "- N/A -   "
35.36, 1417.26, 0.0591032, NaN, NaN, NaN, 0.0347922, "- N/A -   "
35.49, 1423.11, 0.05931142, NaN, NaN, NaN, 0.0384545, "- N/A -   "
35.62, 1428.71, 0.05951412, NaN, NaN, NaN, 0.04577916, "- N/A -   "
35.75, 1435.51, 0.0597557, NaN, NaN, NaN, 0.0335714, "- N/A -   "
35.88, 1441, 0.0599584, NaN, NaN, NaN, 0.0396753, "- N/A -   "
36.01, 1447.55, 0.06019165, NaN, NaN, NaN, 0.0335714, "- N/A -   "
36.14, 1453.159, 0.0603916, NaN, NaN, NaN, 0.0396753, "- N/A -   "
36.27, 1459.12, 0.0606109, NaN, NaN, NaN, 0.0384545, "- N/A -   "
36.4, 1465.08, 0.0608275, NaN, NaN, NaN, 0.0384545, "- N/A -   "
36.53, 1471.29, 0.0610497, NaN, NaN, NaN, 0.03601294, "- N/A -   "
36.66, 1477.37, 0.06127181, NaN, NaN, NaN, 0.0347922, "- N/A -   "
36.79, 1483.69, 0.0614939, NaN, NaN, NaN, 0.0323506, "- N/A -   "
36.92, 1488.82, 0.06168832, NaN, NaN, NaN, 0.04211683, "- N/A -   "
37.05, 1494.66, 0.0618966, NaN, NaN, NaN, 0.04577916, "- N/A -   "
37.18, 1501.456, 0.0621382, NaN, NaN, NaN, 0.0335714, "- N/A -   "
37.31, 1507.42, 0.062352, NaN, NaN, NaN, 0.0347922, "- N/A -   "
37.44, 1513.5, 0.0625741, NaN, NaN, NaN, 0.0323506, "- N/A -   "
37.57, 1518.87, 0.06277403, NaN, NaN, NaN, 0.04089605, "- N/A -   "
37.7, 1524.47, 0.0629795, NaN, NaN, NaN, 0.0445584, "- N/A -   "
37.83, 1531.269, 0.06322109, NaN, NaN, NaN, 0.0335714, "- N/A -   "
37.96, 1537.59, 0.063446, NaN, NaN, NaN, 0.0299091, "- N/A -   "
38.09, 1543.552, 0.06366259, NaN, NaN, NaN, 0.0299091, "- N/A -   "
38.22, 1548.68, 0.06385141, NaN, NaN, NaN, 0.04211683, "- N/A -   "
38.35, 1554.4, 0.06405967, NaN, NaN, NaN, 0.04577916, "- N/A -   "
38.48, 1561.2, 0.0642985, NaN, NaN, NaN, 0.03601294, "- N/A -   "
38.61, 1567.4, 0.0645262, NaN, NaN, NaN, 0.03112983, "- N/A -   "
38.74, 1573.01, 0.06472886, NaN, NaN, NaN, 0.0372337, "- N/A -   "
38.87, 1578.85, 0.06494267, NaN, NaN, NaN, 0.0384545, "- N/A -   "
39, 1584.694, 0.06514815, NaN, NaN, NaN, 0.0433376, "- N/A -   "
39.13, 1591.49, 0.06539528, NaN, NaN, NaN, 0.0299091, "- N/A -   "
39.26, 1597.33, 0.06560909, NaN, NaN, NaN, 0.03112983, "- N/A -   "
39.39, 1603.178, 0.0658229, NaN, NaN, NaN, 0.0335714, "- N/A -   "
39.52, 1609.14, 0.06603394, NaN, NaN, NaN, 0.0347922, "- N/A -   "
39.65, 1614.507, 0.06623109, NaN, NaN, NaN, 0.0433376, "- N/A -   "
39.78, 1620.71, 0.0664588, NaN, NaN, NaN, 0.0396753, "- N/A -   "
39.91, 1627.15, 0.0666809, NaN, NaN, NaN, 0.0372337, "- N/A -   "
40.04, 1632.87, 0.06689473, NaN, NaN, NaN, 0.0384545, "- N/A -   "
40.17, 1639.07, 0.0671252, NaN, NaN, NaN, 0.0335714, "- N/A -   "
40.3, 1644.8, 0.0673279, NaN, NaN, NaN, 0.0384545, "- N/A -   "
40.43, 1650.28, 0.06753338, NaN, NaN, NaN, 0.0433376, "- N/A -   "
40.56, 1656.96, 0.06777219, NaN, NaN, NaN, 0.0335714, "- N/A -   "
40.69, 1663.281, 0.06799988, NaN, NaN, NaN, 0.0286883, "- N/A -   "
40.82, 1669.12, 0.068222, NaN, NaN, NaN, 0.0274675, "- N/A -   "
40.95, 1674.25, 0.0684053, NaN, NaN, NaN, 0.04089605, "- N/A -   "
41.08, 1679.02, 0.06859133, NaN, NaN, NaN, 0.0543246, "- N/A -   "
41.21, 1686.3, 0.06884956, NaN, NaN, NaN, 0.03601294, "- N/A -   "
41.262, 1688.92, 0.06894675, NaN, NaN, NaN, 0.03112983, "- N/A -   "