File: 2_Tensile_Data/Hamel_ForceTest_Bolt7_Test5.csv
Time, Load (lb), Position (in), AxialStrain (in), TransverseStrain (in), Auxiliary (), Control Out (V), Stress (psi)
0.0, 1.17947, 0.0, NaN, NaN, NaN, 0.09094793, "- N/A -   "
0.01, 1.76921, 2.49908e-05, NaN, NaN, NaN, 0.09949338, "- N/A -   "
0.02, 2.476897, 5.27583e-05, NaN, NaN, NaN, 0.106818, "- N/A -   "
0.03, 3.30253, 8.33026e-05, NaN, NaN, NaN, 0.114143, "- N/A -   "
0.04, 4.010214, 0.000116624, NaN, NaN, NaN, 0.106818, "- N/A -   "
0.05, 4.83585, 0.000147168, NaN, NaN, NaN, 0.09949338, "- N/A -   "
0.06, 5.66148, 0.000183266, NaN, NaN, NaN, 0.09094793, "- N/A -   "
0.07, 6.369163, 0.000216587, NaN, NaN, NaN, 0.084844, "- N/A -   "
0.08, 7.07685, 2.471309E-4, NaN, NaN, NaN, 0.07874016, "- N/A -   "
0.09, 7.666586, 0.000274898, NaN, NaN, NaN, 0.07263627, "- N/A -   "
0.1, 8.37427, 0.000302666, NaN, NaN, NaN, 0.0689739, "- N/A -   "
0.11, 8.964007, 0.000327657, NaN, NaN, NaN, 0.0653116, "- N/A -   "
0.12, 9.553744, 0.000349871, NaN, NaN, NaN, 0.06164927, "- N/A -   "
0.13, 10.0255, 0.000377638, NaN, NaN, NaN, 0.0579869, "- N/A -   "
0.14, 10.6153, 0.000399852, NaN, NaN, NaN, 0.0555454, "- N/A -   "
0.15, 11.0871, 4.192895E-4, NaN, NaN, NaN, 0.0531038, "- N/A -   "
0.16, 11.6768, 0.000441504, NaN, NaN, NaN, 0.05188305, "- N/A -   "
0.17, 11.9127, 0.000458164, NaN, NaN, NaN, 0.05066227, "- N/A -   "
0.18, 12.2665, 0.000474825, NaN, NaN, NaN, 0.05066227, "- N/A -   "
0.19, 12.8563, 4.970386E-4, NaN, NaN, NaN, 0.0494415, "- N/A -   "
0.2, 13.2101, 5.192526E-4, NaN, NaN, NaN, 0.04699994, "- N/A -   "
0.21, 13.6819, 5.359131E-4, NaN, NaN, NaN, 0.04577916, "- N/A -   "
0.22, 14.2716, 5.581271E-4, NaN, NaN, NaN, 0.0433376, "- N/A -   "
0.23, 14.7434, 0.000580341, NaN, NaN, NaN, 0.04089605, "- N/A -   "
0.24, 15.2152, 0.000602555, NaN, NaN, NaN, 0.0396753, "- N/A -   "
0.25, 15.687, 6.219924E-4, NaN, NaN, NaN, 0.0372337, "- N/A -   "
0.26, 16.1588, 6.442064E-4, NaN, NaN, NaN, 0.03601294, "- N/A -   "
0.27, 16.6306, 6.636437E-4, NaN, NaN, NaN, 0.0335714, "- N/A -   "
0.28, 16.86649, 6.803042E-4, NaN, NaN, NaN, 0.0335714, "- N/A -   "
0.29, 17.3383, 6.997415E-4, NaN, NaN, NaN, 0.0323506, "- N/A -   "
0.3, 17.6921, 0.000716402, NaN, NaN, NaN, 0.0323506, "- N/A -   "
0.31, 18.046, 0.000733062, NaN, NaN, NaN, 0.0323506, "- N/A -   "
0.32, 18.5178, 7.49723E-4, NaN, NaN, NaN, 0.0335714, "- N/A -   "
0.33, 18.8716, 7.663835E-4, NaN, NaN, NaN, 0.0335714, "- N/A -   "
0.34, 19.1075, 0.000780267, NaN, NaN, NaN, 0.0335714, "- N/A -   "
0.35, 19.4613, 0.000794151, NaN, NaN, NaN, 0.0347922, "- N/A -   "
0.36, 19.6972, 8.080348E-4, NaN, NaN, NaN, 0.03601294, "- N/A -   "
0.37, 20.05107, 0.000821919, NaN, NaN, NaN, 0.0372337, "- N/A -   "
0.38, 20.4049, 8.358023E-4, NaN, NaN, NaN, 0.0384545, "- N/A -   "
0.39, 20.6408, 0.000849686, NaN, NaN, NaN, 0.0396753, "- N/A -   "
0.4, 20.99465, 8.635698E-4, NaN, NaN, NaN, 0.04089605, "- N/A -   "
0.41, 21.3485, 0.00088023, NaN, NaN, NaN, 0.04089605, "- N/A -   "
0.42, 21.7023, 8.968908E-4, NaN, NaN, NaN, 0.04089605, "- N/A -   "
0.43, 21.93823, 9.107746E-4, NaN, NaN, NaN, 0.04211683, "- N/A -   "
0.44, 22.41, 9.246584E-4, NaN, NaN, NaN, 0.0433376, "- N/A -   "
0.45, 22.7639, 9.385421E-4, NaN, NaN, NaN, 0.0445584, "- N/A -   "
0.51, 24.769, 0.00103573, NaN, NaN, NaN, 0.04577916, "- N/A -   "
0.57, 27.2459, 0.001141245, NaN, NaN, NaN, 0.0445584, "- N/A -   "
0.63, 29.84071, 0.00125232, NaN, NaN, NaN, 0.0384545, "- N/A -   "
0.69, 32.08171, 0.00135783, NaN, NaN, NaN, 0.03601294, "- N/A -   "
0.75, 34.4407, 0.00145779, NaN, NaN, NaN, 0.03601294, "- N/A -   "
0.81, 37.0355, 0.00157164, NaN, NaN, NaN, 0.03112983, "- N/A -   "
0.87, 39.5124, 0.00167438, NaN, NaN, NaN, 0.0286883, "- N/A -   "
0.93, 41.7534, 0.00177712, NaN, NaN, NaN, 0.0274675, "- N/A -   "
0.99, 43.75851, 0.0018632, NaN, NaN, NaN, 0.0335714, "- N/A -   "
1.05, 45.8816, 0.00194928, NaN, NaN, NaN, 0.0396753, "- N/A -   "
1.11, 47.8867, 0.002038136, NaN, NaN, NaN, 0.0445584, "- N/A -   "
1.17, 50.2456, 0.002138099, NaN, NaN, NaN, 0.0445584, "- N/A -   "
1.23, 52.48662, 0.00223251, NaN, NaN, NaN, 0.04699994, "- N/A -   "
1.29, 55.1994, 0.00234358, NaN, NaN, NaN, 0.0433376, "- N/A -   "
1.35, 57.91221, 0.00245465, NaN, NaN, NaN, 0.0372337, "- N/A -   "
1.41, 60.7429, 0.00257405, NaN, NaN, NaN, 0.0286883, "- N/A -   "
1.47, 62.98395, 0.00267124, NaN, NaN, NaN, 0.0299091, "- N/A -   "
1.53, 65.4608, 0.00276287, NaN, NaN, NaN, 0.0335714, "- N/A -   "
1.59, 67.5839, 0.00285728, NaN, NaN, NaN, 0.0372337, "- N/A -   "
1.65, 70.17874, 0.00296002, NaN, NaN, NaN, 0.03601294, "- N/A -   "
1.71, 72.65564, 0.00305998, NaN, NaN, NaN, 0.0347922, "- N/A -   "
1.77, 74.66075, 0.00314606, NaN, NaN, NaN, 0.04089605, "- N/A -   "
1.83, 77.0197, 0.00323769, NaN, NaN, NaN, 0.04577916, "- N/A -   "
1.89, 79.37865, 0.00333488, NaN, NaN, NaN, 0.04577916, "- N/A -   "
1.95, 82.32734, 0.0034515, NaN, NaN, NaN, 0.0384545, "- N/A -   "
2.01, 85.15807, 0.00356813, NaN, NaN, NaN, 0.03112983, "- N/A -   "
2.07, 87.75292, 0.00367364, NaN, NaN, NaN, 0.0286883, "- N/A -   "
2.13, 89.99392, 0.00376528, NaN, NaN, NaN, 0.0335714, "- N/A -   "
2.19, 92.23492, 0.00385691, NaN, NaN, NaN, 0.03601294, "- N/A -   "
2.25, 94.8298, 0.00395965, NaN, NaN, NaN, 0.03601294, "- N/A -   "
2.31, 97.54256, 0.00407072, NaN, NaN, NaN, 0.03112983, "- N/A -   "
2.37, 99.9015, 0.00416235, NaN, NaN, NaN, 0.0335714, "- N/A -   "
2.43, 101.789, 0.00424843, NaN, NaN, NaN, 0.0396753, "- N/A -   "
2.49, 104.148, 0.00434284, NaN, NaN, NaN, 0.04211683, "- N/A -   "
2.55, 106.742, 0.00444558, NaN, NaN, NaN, 0.04089605, "- N/A -   "
2.61, 109.219, 0.004545543, NaN, NaN, NaN, 0.04089605, "- N/A -   "
2.67, 111.932, 0.004653836, NaN, NaN, NaN, 0.0384545, "- N/A -   "
2.73, 114.527, 0.004759352, NaN, NaN, NaN, 0.0347922, "- N/A -   "
2.79, 116.886, 0.004859315, NaN, NaN, NaN, 0.0347922, "- N/A -   "
2.85, 119.481, 0.004967609, NaN, NaN, NaN, 0.03112983, "- N/A -   "
2.91, 121.84, 0.00506202, NaN, NaN, NaN, 0.0335714, "- N/A -   "
2.97, 123.963, 0.0051592, NaN, NaN, NaN, 0.03601294, "- N/A -   "
3.03, 126.676, 0.00526194, NaN, NaN, NaN, 0.0335714, "- N/A -   "
3.09, 129.152, 0.00536468, NaN, NaN, NaN, 0.0335714, "- N/A -   "
3.15, 131.276, 0.00545076, NaN, NaN, NaN, 0.0384545, "- N/A -   "
3.21, 133.399, 0.00554517, NaN, NaN, NaN, 0.04089605, "- N/A -   "
3.27, 135.758, 0.005639583, NaN, NaN, NaN, 0.0445584, "- N/A -   "
3.33, 138.352, 0.00574232, NaN, NaN, NaN, 0.04211683, "- N/A -   "
3.39, 141.183, 0.00585339, NaN, NaN, NaN, 0.0372337, "- N/A -   "
3.45, 143.896, 0.00596724, NaN, NaN, NaN, 0.03112983, "- N/A -   "
3.51, 146.137, 0.006064426, NaN, NaN, NaN, 0.0335714, "- N/A -   "
3.57, 148.26, 0.006164389, NaN, NaN, NaN, 0.0347922, "- N/A -   "
3.63, 150.973, 0.00626991, NaN, NaN, NaN, 0.03112983, "- N/A -   "
3.69, 153.568, 0.006372645, NaN, NaN, NaN, 0.0299091, "- N/A -   "
3.75, 155.691, 0.006467055, NaN, NaN, NaN, 0.0323506, "- N/A -   "
3.81, 157.696, 0.006550357, NaN, NaN, NaN, 0.0396753, "- N/A -   "
3.87, 159.701, 0.00663921, NaN, NaN, NaN, 0.04577916, "- N/A -   "
3.93, 161.942, 0.00673362, NaN, NaN, NaN, 0.0482207, "- N/A -   "
3.99, 164.537, 0.00683914, NaN, NaN, NaN, 0.0445584, "- N/A -   "
4.05, 167.367, 0.00695576, NaN, NaN, NaN, 0.0384545, "- N/A -   "
4.11, 169.726, 0.00706128, NaN, NaN, NaN, 0.0347922, "- N/A -   "
4.17, 172.203, 0.0071668, NaN, NaN, NaN, 0.0335714, "- N/A -   "
4.23, 174.9161, 0.007277867, NaN, NaN, NaN, 0.0274675, "- N/A -   "
4.29, 177.039, 0.00737505, NaN, NaN, NaN, 0.0286883, "- N/A -   "
4.35, 179.28, 0.00746946, NaN, NaN, NaN, 0.03112983, "- N/A -   "
4.41, 181.167, 0.007555542, NaN, NaN, NaN, 0.0372337, "- N/A -   "
4.47, 183.172, 0.007649951, NaN, NaN, NaN, 0.0396753, "- N/A -   "
4.53, 185.178, 0.00773881, NaN, NaN, NaN, 0.04577916, "- N/A -   "
4.59, 187.536, 0.00783877, NaN, NaN, NaN, 0.0445584, "- N/A -   "
4.65, 189.895, 0.00794151, NaN, NaN, NaN, 0.0433376, "- N/A -   "
4.71, 192.372, 0.008049804, NaN, NaN, NaN, 0.0396753, "- N/A -   "
4.77, 194.967, 0.008160873, NaN, NaN, NaN, 0.0347922, "- N/A -   "
4.83, 197.326, 0.008271944, NaN, NaN, NaN, 0.0299091, "- N/A -   "
4.89, 199.449, 0.008371906, NaN, NaN, NaN, 0.03112983, "- N/A -   "
4.95, 201.69, 0.008469094, NaN, NaN, NaN, 0.03112983, "- N/A -   "
5.01, 203.813, 0.008563503, NaN, NaN, NaN, 0.0335714, "- N/A -   "
5.07, 205.936, 0.008657913, NaN, NaN, NaN, 0.03601294, "- N/A -   "
5.13, 208.059, 0.008757875, NaN, NaN, NaN, 0.03601294, "- N/A -   "
5.19, 209.946, 0.008849508, NaN, NaN, NaN, 0.04089605, "- N/A -   "
5.25, 211.9516, 0.008941141, NaN, NaN, NaN, 0.0445584, "- N/A -   "
5.31, 214.1926, 0.009038327, NaN, NaN, NaN, 0.0445584, "- N/A -   "
5.37, 216.67, 0.009149397, NaN, NaN, NaN, 0.04089605, "- N/A -   "
5.43, 219.1464, 0.009260467, NaN, NaN, NaN, 0.03601294, "- N/A -   "
5.49, 221.387, 0.009365984, NaN, NaN, NaN, 0.0335714, "- N/A -   "
5.55, 223.3925, 0.009460393, NaN, NaN, NaN, 0.03601294, "- N/A -   "
5.61, 225.398, 0.00955758, NaN, NaN, NaN, 0.03601294, "- N/A -   "
5.67, 227.992, 0.009671426, NaN, NaN, NaN, 0.03112983, "- N/A -   "
5.73, 229.88, 0.00976306, NaN, NaN, NaN, 0.0335714, "- N/A -   "
5.79, 231.885, 0.009857468, NaN, NaN, NaN, 0.03601294, "- N/A -   "
5.85, 234.008, 0.009954655, NaN, NaN, NaN, 0.0372337, "- N/A -   "
5.91, 236.0129, 0.0100463, NaN, NaN, NaN, 0.04089605, "- N/A -   "
5.97, 238.254, 0.0101463, NaN, NaN, NaN, 0.04089605, "- N/A -   "
6.03, 240.495, 0.010249, NaN, NaN, NaN, 0.0396753, "- N/A -   "
6.09, 242.853, 0.0103573, NaN, NaN, NaN, 0.03601294, "- N/A -   "
6.15, 245.092, 0.0104572, NaN, NaN, NaN, 0.03601294, "- N/A -   "
6.21, 247.213, 0.01056, NaN, NaN, NaN, 0.0347922, "- N/A -   "
6.27, 249.6874, 0.0106683, NaN, NaN, NaN, 0.0323506, "- N/A -   "
6.33, 251.808, 0.0107682, NaN, NaN, NaN, 0.03112983, "- N/A -   "
6.39, 253.811, 0.0108654, NaN, NaN, NaN, 0.0323506, "- N/A -   "
6.45, 255.814, 0.0109626, NaN, NaN, NaN, 0.0347922, "- N/A -   "
6.51, 258.171, 0.0110626, NaN, NaN, NaN, 0.0335714, "- N/A -   "
6.57, 259.938, 0.0111542, NaN, NaN, NaN, 0.0372337, "- N/A -   "
6.63, 262.059, 0.0112486, NaN, NaN, NaN, 0.0396753, "- N/A -   "
6.69, 263.944, 0.0113403, NaN, NaN, NaN, 0.0433376, "- N/A -   "
6.75, 266.183, 0.0114402, NaN, NaN, NaN, 0.0445584, "- N/A -   "
6.81, 268.422, 0.0115457, NaN, NaN, NaN, 0.04089605, "- N/A -   "
6.87, 271.014, 0.0116624, NaN, NaN, NaN, 0.0335714, "- N/A -   "
6.93, 273.253, 0.0117651, NaN, NaN, NaN, 0.0335714, "- N/A -   "
6.99, 275.256, 0.01186506, NaN, NaN, NaN, 0.0335714, "- N/A -   "
7.05, 277.8478, 0.0119734, NaN, NaN, NaN, 0.0286883, "- N/A -   "
7.11, 279.733, 0.01207054, NaN, NaN, NaN, 0.0299091, "- N/A -   "
7.17, 281.736, 0.0121649, NaN, NaN, NaN, 0.0335714, "- N/A -   "
7.23, 283.6213, 0.01225103, NaN, NaN, NaN, 0.0384545, "- N/A -   "
7.29, 285.5065, 0.0123399, NaN, NaN, NaN, 0.0433376, "- N/A -   "
7.35, 287.51, 0.0124315, NaN, NaN, NaN, 0.04699994, "- N/A -   "
7.41, 290.102, 0.0125426, NaN, NaN, NaN, 0.0433376, "- N/A -   "
7.47, 292.576, 0.0126564, NaN, NaN, NaN, 0.0372337, "- N/A -   "
7.53, 295.168, 0.0127675, NaN, NaN, NaN, 0.03112983, "- N/A -   "
7.59, 297.289, 0.0128702, NaN, NaN, NaN, 0.03112983, "- N/A -   "
7.65, 299.528, 0.0129758, NaN, NaN, NaN, 0.0274675, "- N/A -   "
7.71, 301.6487, 0.0130729, NaN, NaN, NaN, 0.0299091, "- N/A -   "
7.77, 303.652, 0.0131674, NaN, NaN, NaN, 0.03112983, "- N/A -   "
7.83, 305.6548, 0.01325899, NaN, NaN, NaN, 0.0347922, "- N/A -   "
7.89, 307.658, 0.0133506, NaN, NaN, NaN, 0.0384545, "- N/A -   "
7.95, 309.6609, 0.0134395, NaN, NaN, NaN, 0.0433376, "- N/A -   "
8.01, 312.0174, 0.0135422, NaN, NaN, NaN, 0.04211683, "- N/A -   "
8.07, 314.138, 0.0136422, NaN, NaN, NaN, 0.0433376, "- N/A -   "
8.13, 316.495, 0.0137449, NaN, NaN, NaN, 0.0433376, "- N/A -   "
8.19, 319.087, 0.0138588, NaN, NaN, NaN, 0.0372337, "- N/A -   "
8.25, 321.915, 0.0139754, NaN, NaN, NaN, 0.0286883, "- N/A -   "
8.29, 323.3287, 0.0140448, NaN, NaN, NaN, 0.0286883, "- N/A -   "
8.3, 323.8, 0.0140587, NaN, NaN, NaN, 0.0286883, "- N/A -   "
8.31, 324.153, 0.0140754, NaN, NaN, NaN, 0.0286883, "- N/A -   "
8.32, 324.389, 0.014092, NaN, NaN, NaN, 0.0286883, "- N/A -   "
8.33, 324.86, 0.0141087, NaN, NaN, NaN, 0.0286883, "- N/A -   "
8.34, 325.0961, 0.01412256, NaN, NaN, NaN, 0.0299091, "- N/A -   "
8.35, 325.567, 0.0141392, NaN, NaN, NaN, 0.0299091, "- N/A -   "
8.36, 325.921, 0.0141559, NaN, NaN, NaN, 0.0299091, "- N/A -   "
8.37, 326.274, 0.0141725, NaN, NaN, NaN, 0.0299091, "- N/A -   "
8.38, 326.51, 0.0141864, NaN, NaN, NaN, 0.03112983, "- N/A -   "
8.39, 326.863, 0.0142003, NaN, NaN, NaN, 0.0323506, "- N/A -   "
8.4, 327.217, 0.01421697, NaN, NaN, NaN, 0.0323506, "- N/A -   "
8.41, 327.57, 0.0142336, NaN, NaN, NaN, 0.0323506, "- N/A -   "
8.42, 328.042, 0.0142503, NaN, NaN, NaN, 0.0323506, "- N/A -   "
8.43, 328.395, 0.014267, NaN, NaN, NaN, 0.0323506, "- N/A -   "
8.44, 328.631, 0.0142808, NaN, NaN, NaN, 0.0335714, "- N/A -   "
8.45, 328.867, 0.0142947, NaN, NaN, NaN, 0.03601294, "- N/A -   "
8.46, 329.22, 0.0143114, NaN, NaN, NaN, 0.03601294, "- N/A -   "
8.47, 329.573, 0.0143253, NaN, NaN, NaN, 0.03601294, "- N/A -   "
8.48, 330.0448, 0.0143419, NaN, NaN, NaN, 0.03601294, "- N/A -   "
8.49, 330.28, 0.0143586, NaN, NaN, NaN, 0.03601294, "- N/A -   "
8.5, 330.752, 0.0143752, NaN, NaN, NaN, 0.0372337, "- N/A -   "
8.51, 331.105, 0.0143891, NaN, NaN, NaN, 0.0372337, "- N/A -   "
8.52, 331.4587, 0.0144058, NaN, NaN, NaN, 0.0384545, "- N/A -   "
8.53, 331.812, 0.0144197, NaN, NaN, NaN, 0.0384545, "- N/A -   "
8.54, 332.283, 0.01443911, NaN, NaN, NaN, 0.0372337, "- N/A -   "
8.55, 332.637, 0.0144558, NaN, NaN, NaN, 0.0372337, "- N/A -   "
8.56, 333.108, 0.0144724, NaN, NaN, NaN, 0.0372337, "- N/A -   "
8.57, 333.344, 0.0144891, NaN, NaN, NaN, 0.0372337, "- N/A -   "
8.58, 333.815, 0.014503, NaN, NaN, NaN, 0.0384545, "- N/A -   "
8.59, 334.051, 0.0145196, NaN, NaN, NaN, 0.0384545, "- N/A -   "
8.6, 334.5222, 0.0145335, NaN, NaN, NaN, 0.0396753, "- N/A -   "
8.61, 334.758, 0.0145502, NaN, NaN, NaN, 0.0396753, "- N/A -   "
8.62, 335.1113, 0.0145641, NaN, NaN, NaN, 0.04089605, "- N/A -   "
8.63, 335.347, 0.0145779, NaN, NaN, NaN, 0.04211683, "- N/A -   "
8.64, 335.7, 0.0145974, NaN, NaN, NaN, 0.04211683, "- N/A -   "
8.65, 336.172, 0.0146113, NaN, NaN, NaN, 0.04211683, "- N/A -   "
8.66, 336.5252, 0.0146279, NaN, NaN, NaN, 0.0433376, "- N/A -   "
8.67, 336.8787, 0.0146418, NaN, NaN, NaN, 0.0433376, "- N/A -   "
8.68, 337.232, 0.0146585, NaN, NaN, NaN, 0.0433376, "- N/A -   "
8.69, 337.468, 0.0146724, NaN, NaN, NaN, 0.0445584, "- N/A -   "
8.7, 337.939, 0.0146862, NaN, NaN, NaN, 0.04577916, "- N/A -   "
8.71, 338.175, 0.0147001, NaN, NaN, NaN, 0.04699994, "- N/A -   "
8.72, 338.528, 0.0147168, NaN, NaN, NaN, 0.04699994, "- N/A -   "
8.73, 339, 0.0147362, NaN, NaN, NaN, 0.04577916, "- N/A -   "
8.74, 339.353, 0.0147529, NaN, NaN, NaN, 0.04577916, "- N/A -   "
8.75, 339.824, 0.0147751, NaN, NaN, NaN, 0.0445584, "- N/A -   "
8.76, 340.296, 0.0147945, NaN, NaN, NaN, 0.0433376, "- N/A -   "
8.77, 340.767, 0.014814, NaN, NaN, NaN, 0.04211683, "- N/A -   "
8.78, 341.3561, 0.0148334, NaN, NaN, NaN, 0.04089605, "- N/A -   "
8.79, 341.8274, 0.0148528, NaN, NaN, NaN, 0.0384545, "- N/A -   "
8.8, 342.181, 0.0148723, NaN, NaN, NaN, 0.0372337, "- N/A -   "
8.81, 342.652, 0.0148917, NaN, NaN, NaN, 0.0372337, "- N/A -   "
8.82, 343.006, 0.0149084, NaN, NaN, NaN, 0.03601294, "- N/A -   "
8.83, 343.477, 0.0149278, NaN, NaN, NaN, 0.0347922, "- N/A -   "
8.84, 343.948, 0.01495, NaN, NaN, NaN, 0.0335714, "- N/A -   "
8.85, 344.4196, 0.0149667, NaN, NaN, NaN, 0.0323506, "- N/A -   "
8.86, 344.891, 0.0149861, NaN, NaN, NaN, 0.03112983, "- N/A -   "
8.87, 345.244, 0.0150056, NaN, NaN, NaN, 0.0299091, "- N/A -   "
8.88, 345.716, 0.0150222, NaN, NaN, NaN, 0.0299091, "- N/A -   "
8.89, 346.069, 0.0150389, NaN, NaN, NaN, 0.0299091, "- N/A -   "
8.9, 346.4226, 0.0150555, NaN, NaN, NaN, 0.0299091, "- N/A -   "
8.91, 346.7761, 0.01507221, NaN, NaN, NaN, 0.0299091, "- N/A -   "
8.92, 347.13, 0.0150916, NaN, NaN, NaN, 0.0299091, "- N/A -   "
8.93, 347.483, 0.0151028, NaN, NaN, NaN, 0.03112983, "- N/A -   "
8.94, 347.837, 0.0151194, NaN, NaN, NaN, 0.0323506, "- N/A -   "
8.95, 348.19, 0.0151333, NaN, NaN, NaN, 0.0323506, "- N/A -   "
8.96, 348.5435, 0.0151472, NaN, NaN, NaN, 0.0335714, "- N/A -   "
8.97, 348.779, 0.0151611, NaN, NaN, NaN, 0.0347922, "- N/A -   "
8.98, 349.1326, 0.0151777, NaN, NaN, NaN, 0.03601294, "- N/A -   "
8.99, 349.486, 0.01519161, NaN, NaN, NaN, 0.03601294, "- N/A -   "
9, 349.84, 0.0152055, NaN, NaN, NaN, 0.0372337, "- N/A -   "
9.01, 350.193, 0.01522493, NaN, NaN, NaN, 0.03601294, "- N/A -   "
9.17, 356.673, 0.0154998, NaN, NaN, NaN, 0.0323506, "- N/A -   "
9.33, 362.447, 0.0157497, NaN, NaN, NaN, 0.04089605, "- N/A -   "
9.49, 368.692, 0.0160219, NaN, NaN, NaN, 0.0384545, "- N/A -   "
9.65, 375.054, 0.01629398, NaN, NaN, NaN, 0.0347922, "- N/A -   "
9.81, 381.417, 0.0165633, NaN, NaN, NaN, 0.0335714, "- N/A -   "
9.97, 387.308, 0.0168216, NaN, NaN, NaN, 0.0372337, "- N/A -   "
10.13, 393.082, 0.01707147, NaN, NaN, NaN, 0.0445584, "- N/A -   "
10.29, 400.1513, 0.0173658, NaN, NaN, NaN, 0.0323506, "- N/A -   "
10.45, 406.514, 0.0176352, NaN, NaN, NaN, 0.03112983, "- N/A -   "
10.61, 412.877, 0.0179017, NaN, NaN, NaN, 0.03112983, "- N/A -   "
10.77, 418.1787, 0.0181294, NaN, NaN, NaN, 0.0482207, "- N/A -   "
[...]
11.89, 463.66, 0.0200232, NaN, NaN, NaN, 0.03601294, "- N/A -   "
12.05, 469.904, 0.02027862, NaN, NaN, NaN, 0.04089605, "- N/A -   "
12.21, 476.856, 0.02055352, NaN, NaN, NaN, 0.0372337, "- N/A -   "
12.37, 483.572, 0.0208284, NaN, NaN, NaN, 0.0335714, "- N/A -   "
12.53, 490.288, 0.02109776, NaN, NaN, NaN, 0.0323506, "- N/A -   "
12.69, 496.2974, 0.02134489, NaN, NaN, NaN, 0.04211683, "- N/A -   "
12.85, 503.2491, 0.0216198, NaN, NaN, NaN, 0.0384545, "- N/A -   "
13.01, 509.847, 0.0218891, NaN, NaN, NaN, 0.0372337, "- N/A -   "
13.17, 516.8118, 0.0221696, NaN, NaN, NaN, 0.03112983, "- N/A -   "
13.33, 523.4356, 0.0224278, NaN, NaN, NaN, 0.0347922, "- N/A -   "
13.49, 529.5862, 0.0226777, NaN, NaN, NaN, 0.04211683, "- N/A -   "
13.65, 536.9196, 0.022961, NaN, NaN, NaN, 0.03601294, "- N/A -   "
13.81, 543.543, 0.0232248, NaN, NaN, NaN, 0.03601294, "- N/A -   "
13.97, 550.6402, 0.0235052, NaN, NaN, NaN, 0.0299091, "- N/A -   "
14.13, 556.436, 0.0237357, NaN, NaN, NaN, 0.04577916, "- N/A -   "
14.29, 563.769, 0.0240189, NaN, NaN, NaN, 0.0384545, "- N/A -   "
14.45, 571.1028, 0.0243077, NaN, NaN, NaN, 0.0286883, "- N/A -   "
14.61, 577.7265, 0.0245687, NaN, NaN, NaN, 0.0323506, "- N/A -   "
14.77, 583.641, 0.0248019, NaN, NaN, NaN, 0.04577916, "- N/A -   "
14.93, 590.974, 0.0250796, NaN, NaN, NaN, 0.04089605, "- N/A -   "
15.09, 598.662, 0.0253712, NaN, NaN, NaN, 0.0299091, "- N/A -   "
15.25, 605.0494, 0.0256239, NaN, NaN, NaN, 0.03601294, "- N/A -   "
15.41, 611.91, 0.0258849, NaN, NaN, NaN, 0.0384545, "- N/A -   "
15.57, 618.4151, 0.0261403, NaN, NaN, NaN, 0.0433376, "- N/A -   "
15.73, 626.3399, 0.0264402, NaN, NaN, NaN, 0.0286883, "- N/A -   "
15.89, 632.8454, 0.02669847, NaN, NaN, NaN, 0.0335714, "- N/A -   "
16.05, 639.7056, 0.02695393, NaN, NaN, NaN, 0.0384545, "- N/A -   "
16.21, 646.8025, 0.0272233, NaN, NaN, NaN, 0.03601294, "- N/A -   "
16.37, 653.308, 0.027476, NaN, NaN, NaN, 0.04211683, "- N/A -   "
16.53, 660.4048, 0.0277536, NaN, NaN, NaN, 0.0384545, "- N/A -   "
16.69, 667.9748, 0.0280369, NaN, NaN, NaN, 0.0299091, "- N/A -   "
16.85, 674.2437, 0.02828122, NaN, NaN, NaN, 0.0396753, "- N/A -   "
17.01, 681.3405, 0.0285478, NaN, NaN, NaN, 0.04089605, "- N/A -   "
17.17, 688.7922, 0.0288338, NaN, NaN, NaN, 0.0335714, "- N/A -   "
17.33, 696.1256, 0.0291087, NaN, NaN, NaN, 0.0286883, "- N/A -   "
17.49, 702.1579, 0.0293475, NaN, NaN, NaN, 0.04211683, "- N/A -   "
17.65, 709.018, 0.0296085, NaN, NaN, NaN, 0.0433376, "- N/A -   "
17.81, 716.5882, 0.0298917, NaN, NaN, NaN, 0.03601294, "- N/A -   "
17.97, 723.803, 0.0301666, NaN, NaN, NaN, 0.0323506, "- N/A -   "
18.13, 730.3088, 0.0304165, NaN, NaN, NaN, 0.04089605, "- N/A -   "
18.29, 736.933, 0.030672, NaN, NaN, NaN, 0.04577916, "- N/A -   "
18.45, 745.212, 0.03097189, NaN, NaN, NaN, 0.0299091, "- N/A -   "
18.61, 752.3091, 0.0312385, NaN, NaN, NaN, 0.0299091, "- N/A -   "
18.77, 758.933, 0.03149392, NaN, NaN, NaN, 0.03601294, "- N/A -   "
18.93, 765.438, 0.0317355, NaN, NaN, NaN, 0.04577916, "- N/A -   "
19.09, 773.4813, 0.0320326, NaN, NaN, NaN, 0.0323506, "- N/A -   "
19.25, 780.223, 0.0322853, NaN, NaN, NaN, 0.0384545, "- N/A -   "
19.41, 787.7933, 0.0325657, NaN, NaN, NaN, 0.0323506, "- N/A -   "
19.57, 794.417, 0.03281843, NaN, NaN, NaN, 0.0384545, "- N/A -   "
19.73, 801.6321, 0.0330878, NaN, NaN, NaN, 0.0372337, "- N/A -   "
19.89, 808.9655, 0.0333627, NaN, NaN, NaN, 0.0347922, "- N/A -   "
20.05, 816.181, 0.03363202, NaN, NaN, NaN, 0.0323506, "- N/A -   "
20.21, 822.9227, 0.03388748, NaN, NaN, NaN, 0.0372337, "- N/A -   "
20.37, 829.783, 0.03413739, NaN, NaN, NaN, 0.0445584, "- N/A -   "
20.53, 837.5895, 0.03442617, NaN, NaN, NaN, 0.0347922, "- N/A -   "
20.69, 845.0412, 0.0347011, NaN, NaN, NaN, 0.03112983, "- N/A -   "
20.85, 851.7832, 0.03495653, NaN, NaN, NaN, 0.0372337, "- N/A -   "
21.01, 858.289, 0.0351981, NaN, NaN, NaN, 0.04699994, "- N/A -   "
21.17, 866.5683, 0.0355008, NaN, NaN, NaN, 0.0323506, "- N/A -   "
21.33, 873.902, 0.0357784, NaN, NaN, NaN, 0.0274675, "- N/A -   "
21.49, 880.407, 0.03602558, NaN, NaN, NaN, 0.0347922, "- N/A -   "
21.65, 887.0309, 0.0362727, NaN, NaN, NaN, 0.04577916, "- N/A -   "
21.81, 894.8374, 0.03655594, NaN, NaN, NaN, 0.0372337, "- N/A -   "
21.97, 902.2891, 0.03683084, NaN, NaN, NaN, 0.0335714, "- N/A -   "
22.13, 909.0312, 0.0370863, NaN, NaN, NaN, 0.0396753, "- N/A -   "
22.29, 916.0097, 0.03734176, NaN, NaN, NaN, 0.0445584, "- N/A -   "
22.45, 923.8162, 0.0376222, NaN, NaN, NaN, 0.0372337, "- N/A -   "
22.61, 931.0314, 0.03789711, NaN, NaN, NaN, 0.0347922, "- N/A -   "
22.77, 938.6014, 0.03816923, NaN, NaN, NaN, 0.03112983, "- N/A -   "
22.93, 944.8702, 0.03841081, NaN, NaN, NaN, 0.0433376, "- N/A -   "
23.09, 952.2036, 0.03868015, NaN, NaN, NaN, 0.04089605, "- N/A -   "
23.25, 959.7736, 0.0389606, NaN, NaN, NaN, 0.03601294, "- N/A -   "
23.41, 966.9888, 0.0392272, NaN, NaN, NaN, 0.0347922, "- N/A -   "
23.57, 974.2039, 0.0394937, NaN, NaN, NaN, 0.0347922, "- N/A -   "
23.73, 980.946, 0.0397464, NaN, NaN, NaN, 0.04089605, "- N/A -   "
23.89, 988.752, 0.0400324, NaN, NaN, NaN, 0.0335714, "- N/A -   "
24.05, 995.9675, 0.040299, NaN, NaN, NaN, 0.0323506, "- N/A -   "
24.21, 1003.42, 0.04057112, NaN, NaN, NaN, 0.03112983, "- N/A -   "
24.37, 1009.33, 0.0408016, NaN, NaN, NaN, 0.04577916, "- N/A -   "
24.53, 1017.17, 0.04108482, NaN, NaN, NaN, 0.0384545, "- N/A -   "
24.69, 1024.69, 0.04136527, NaN, NaN, NaN, 0.0323506, "- N/A -   "
24.85, 1031.961, 0.04163184, NaN, NaN, NaN, 0.0323506, "- N/A -   "
25.01, 1038.16, 0.0418706, NaN, NaN, NaN, 0.0445584, "- N/A -   "
25.17, 1045.91, 0.0421511, NaN, NaN, NaN, 0.0384545, "- N/A -   "
25.33, 1053.9, 0.0424454, NaN, NaN, NaN, 0.0274675, "- N/A -   "
25.49, 1060.7, 0.0426953, NaN, NaN, NaN, 0.0335714, "- N/A -   "
25.65, 1067.856, 0.0429564, NaN, NaN, NaN, 0.0372337, "- N/A -   "
25.81, 1074.534, 0.04320348, NaN, NaN, NaN, 0.0445584, "- N/A -   "
25.97, 1082.76, 0.0435006, NaN, NaN, NaN, 0.0323506, "- N/A -   "
26.13, 1089.68, 0.0437588, NaN, NaN, NaN, 0.0347922, "- N/A -   "
26.29, 1096.83, 0.0440198, NaN, NaN, NaN, 0.0384545, "- N/A -   "
26.45, 1103.87, 0.0442836, NaN, NaN, NaN, 0.0396753, "- N/A -   "
26.61, 1111.14, 0.0445502, NaN, NaN, NaN, 0.0396753, "- N/A -   "
26.77, 1118.9, 0.0448362, NaN, NaN, NaN, 0.03112983, "- N/A -   "
26.93, 1126.17, 0.04510278, NaN, NaN, NaN, 0.0323506, "- N/A -   "
27.09, 1132.61, 0.04534158, NaN, NaN, NaN, 0.0433376, "- N/A -   "
27.25, 1139.88, 0.04560815, NaN, NaN, NaN, 0.0433376, "- N/A -   "
27.41, 1147.99, 0.0458914, NaN, NaN, NaN, 0.03601294, "- N/A -   "
27.57, 1155.63, 0.04617461, NaN, NaN, NaN, 0.0299091, "- N/A -   "
27.73, 1161.83, 0.0464079, NaN, NaN, NaN, 0.0433376, "- N/A -   "
27.89, 1169.46, 0.04668, NaN, NaN, NaN, 0.04089605, "- N/A -   "
28.05, 1177.21, 0.0469632, NaN, NaN, NaN, 0.0335714, "- N/A -   "
28.21, 1184.842, 0.04724366, NaN, NaN, NaN, 0.0274675, "- N/A -   "
28.37, 1191.16, 0.0474769, NaN, NaN, NaN, 0.04211683, "- N/A -   "
28.53, 1198.32, 0.04773514, NaN, NaN, NaN, 0.04577916, "- N/A -   "
28.69, 1206.546, 0.04803225, NaN, NaN, NaN, 0.0323506, "- N/A -   "
28.85, 1213.701, 0.0483016, NaN, NaN, NaN, 0.0323506, "- N/A -   "
29.01, 1220.98, 0.0485598, NaN, NaN, NaN, 0.03601294, "- N/A -   "
29.17, 1227.65, 0.04880419, NaN, NaN, NaN, 0.0445584, "- N/A -   "
29.33, 1236.12, 0.04910686, NaN, NaN, NaN, 0.0286883, "- N/A -   "
29.49, 1243.037, 0.0493595, NaN, NaN, NaN, 0.0347922, "- N/A -   "
29.65, 1250.43, 0.0496289, NaN, NaN, NaN, 0.0335714, "- N/A -   "
29.81, 1257.59, 0.0498899, NaN, NaN, NaN, 0.03601294, "- N/A -   "
29.97, 1264.5, 0.0501454, NaN, NaN, NaN, 0.04089605, "- N/A -   "
30.13, 1271.896, 0.0504147, NaN, NaN, NaN, 0.0396753, "- N/A -   "
30.29, 1279.77, 0.0507007, NaN, NaN, NaN, 0.03112983, "- N/A -   "
30.45, 1286.44, 0.0509534, NaN, NaN, NaN, 0.0372337, "- N/A -   "
30.61, 1293.72, 0.0512144, NaN, NaN, NaN, 0.0396753, "- N/A -   "
30.77, 1301.47, 0.0515004, NaN, NaN, NaN, 0.0323506, "- N/A -   "
30.93, 1308.86, 0.05176976, NaN, NaN, NaN, 0.03112983, "- N/A -   "
31.09, 1315.66, 0.0520224, NaN, NaN, NaN, 0.0372337, "- N/A -   "
31.25, 1322.22, 0.0522668, NaN, NaN, NaN, 0.04699994, "- N/A -   "
31.41, 1330.21, 0.0525584, NaN, NaN, NaN, 0.03601294, "- N/A -   "
31.57, 1337.72, 0.05283881, NaN, NaN, NaN, 0.0299091, "- N/A -   "
31.73, 1344.52, 0.05308594, NaN, NaN, NaN, 0.0384545, "- N/A -   "
31.89, 1351.2, 0.05333863, NaN, NaN, NaN, 0.0445584, "- N/A -   "
32.05, 1359.19, 0.0536302, NaN, NaN, NaN, 0.0335714, "- N/A -   "
32.21, 1366.7, 0.0539051, NaN, NaN, NaN, 0.0299091, "- N/A -   "
32.229, 1367.66, 0.0539412, NaN, NaN, NaN, 0.0286883, "- N/A -   "