File: 2_Tensile_Data/Hamel_ForceTest_Bolt9_Test6.csv
Time, Load (lb), Position (in), AxialStrain (in), TransverseStrain (in), Auxiliary (), Control Out (V), Stress (psi)
0.0, 15.0973, 0.0, NaN, NaN, NaN, -0.006714277, "- N/A -   "
0.01, 15.0973, 2.776752E-6, NaN, NaN, NaN, -6.103888E-4, "- N/A -   "
0.02, 15.0973, 2.776752E-6, NaN, NaN, NaN, 0.006714277, "- N/A -   "
0.03, 15.0973, 2.776752E-6, NaN, NaN, NaN, 0.0213636, "- N/A -   "
0.04, 15.0973, 8.330256E-6, NaN, NaN, NaN, 0.0384545, "- N/A -   "
0.05, 15.2152, 1.66605e-05, NaN, NaN, NaN, 0.0543246, "- N/A -   "
0.06, 15.3332, 3.054427E-5, NaN, NaN, NaN, 0.0689739, "- N/A -   "
0.07, 15.5691, 4.720478E-5, NaN, NaN, NaN, 0.0799609, "- N/A -   "
0.08, 16.0409, 7.21955e-05, NaN, NaN, NaN, 0.08850638, "- N/A -   "
0.09, 16.3947, 9.99631e-05, NaN, NaN, NaN, 0.095831, "- N/A -   "
0.1, 16.74854, 0.000130507, NaN, NaN, NaN, 0.103156, "- N/A -   "
0.11, 17.3383, 0.000158275, NaN, NaN, NaN, 0.09705182, "- N/A -   "
0.12, 17.6921, 0.000188819, NaN, NaN, NaN, 0.09094793, "- N/A -   "
0.13, 18.046, 2.138099E-4, NaN, NaN, NaN, 0.0872856, "- N/A -   "
0.14, 18.3998, 0.000238801, NaN, NaN, NaN, 0.08362327, "- N/A -   "
0.15, 18.7536, 0.000263791, NaN, NaN, NaN, 0.0799609, "- N/A -   "
0.16, 19.1075, 0.000286005, NaN, NaN, NaN, 0.07751938, "- N/A -   "
0.17, 19.3434, 3.109962E-4, NaN, NaN, NaN, 0.07385705, "- N/A -   "
0.18, 19.6972, 0.00033321, NaN, NaN, NaN, 0.07263627, "- N/A -   "
0.19, 19.9331, 0.000349871, NaN, NaN, NaN, 0.07141549, "- N/A -   "
0.2, 20.169, 0.000372085, NaN, NaN, NaN, 0.0689739, "- N/A -   "
0.21, 20.4049, 0.000391522, NaN, NaN, NaN, 0.06775316, "- N/A -   "
0.22, 20.7588, 4.13736E-4, NaN, NaN, NaN, 0.06653238, "- N/A -   "
0.23, 20.99465, 4.331733E-4, NaN, NaN, NaN, 0.0653116, "- N/A -   "
0.24, 21.3485, 4.553873E-4, NaN, NaN, NaN, 0.06287005, "- N/A -   "
0.25, 21.5844, 0.000474825, NaN, NaN, NaN, 0.06164927, "- N/A -   "
0.26, 21.93823, 4.942618E-4, NaN, NaN, NaN, 0.0592077, "- N/A -   "
0.27, 22.1741, 5.136991E-4, NaN, NaN, NaN, 0.0579869, "- N/A -   "
0.28, 22.528, 0.000533136, NaN, NaN, NaN, 0.05676616, "- N/A -   "
0.29, 22.7639, 5.525736E-4, NaN, NaN, NaN, 0.0555454, "- N/A -   "
0.3, 22.9998, 5.720109E-4, NaN, NaN, NaN, 0.0543246, "- N/A -   "
0.31, 23.3536, 5.942249E-4, NaN, NaN, NaN, 0.05188305, "- N/A -   "
0.32, 23.5895, 6.164389E-4, NaN, NaN, NaN, 0.05066227, "- N/A -   "
0.33, 23.9433, 0.000638653, NaN, NaN, NaN, 0.0482207, "- N/A -   "
0.34, 24.1792, 0.00065809, NaN, NaN, NaN, 0.04577916, "- N/A -   "
0.35, 24.5331, 6.803042E-4, NaN, NaN, NaN, 0.0433376, "- N/A -   "
0.36, 24.8869, 6.997415E-4, NaN, NaN, NaN, 0.04211683, "- N/A -   "
0.37, 25.1228, 7.219555E-4, NaN, NaN, NaN, 0.04089605, "- N/A -   "
0.38, 25.3587, 7.413927E-4, NaN, NaN, NaN, 0.0384545, "- N/A -   "
0.39, 25.5946, 0.000758053, NaN, NaN, NaN, 0.0384545, "- N/A -   "
0.4, 25.9484, 7.774905E-4, NaN, NaN, NaN, 0.0372337, "- N/A -   "
0.41, 26.18434, 0.000794151, NaN, NaN, NaN, 0.0372337, "- N/A -   "
0.42, 26.3023, 8.108115E-4, NaN, NaN, NaN, 0.0372337, "- N/A -   "
0.43, 26.6561, 8.27472E-4, NaN, NaN, NaN, 0.0372337, "- N/A -   "
0.44, 26.892, 0.000844133, NaN, NaN, NaN, 0.0372337, "- N/A -   "
0.48, 27.7177, 0.000907998, NaN, NaN, NaN, 0.0384545, "- N/A -   "
0.52, 29.0151, 9.857469E-4, NaN, NaN, NaN, 0.0335714, "- N/A -   "
0.56, 29.9587, 0.00105794, NaN, NaN, NaN, 0.03112983, "- N/A -   "
0.6, 30.9022, 0.00112458, NaN, NaN, NaN, 0.03112983, "- N/A -   "
0.64, 31.9638, 0.00118845, NaN, NaN, NaN, 0.0323506, "- N/A -   "
0.68, 32.7894, 0.00124954, NaN, NaN, NaN, 0.0347922, "- N/A -   "
0.72, 33.61503, 0.00130785, NaN, NaN, NaN, 0.0384545, "- N/A -   "
0.76, 34.55861, 0.00136894, NaN, NaN, NaN, 0.04089605, "- N/A -   "
0.8, 35.3842, 0.00142725, NaN, NaN, NaN, 0.0445584, "- N/A -   "
0.84, 36.44577, 0.00149389, NaN, NaN, NaN, 0.0445584, "- N/A -   "
0.88, 37.5073, 0.00156609, NaN, NaN, NaN, 0.04211683, "- N/A -   "
0.92, 38.68677, 0.00163828, NaN, NaN, NaN, 0.04089605, "- N/A -   "
0.96, 39.7483, 0.0017077, NaN, NaN, NaN, 0.0384545, "- N/A -   "
1, 40.8098, 0.00177712, NaN, NaN, NaN, 0.0372337, "- N/A -   "
1.04, 41.8714, 0.00184932, NaN, NaN, NaN, 0.0347922, "- N/A -   "
1.08, 42.93288, 0.00191596, NaN, NaN, NaN, 0.0347922, "- N/A -   "
1.12, 44.1124, 0.00198815, NaN, NaN, NaN, 0.0335714, "- N/A -   "
1.16, 45.29183, 0.002057573, NaN, NaN, NaN, 0.03112983, "- N/A -   "
1.2, 46.3534, 0.002126992, NaN, NaN, NaN, 0.03112983, "- N/A -   "
1.24, 47.4149, 0.002193634, NaN, NaN, NaN, 0.0299091, "- N/A -   "
1.28, 48.47641, 0.0022575, NaN, NaN, NaN, 0.03112983, "- N/A -   "
1.32, 49.41999, 0.00232136, NaN, NaN, NaN, 0.0335714, "- N/A -   "
1.36, 50.3636, 0.002382453, NaN, NaN, NaN, 0.0347922, "- N/A -   "
1.4, 51.30715, 0.002437988, NaN, NaN, NaN, 0.0396753, "- N/A -   "
1.44, 52.25073, 0.00249908, NaN, NaN, NaN, 0.0433376, "- N/A -   "
1.48, 53.3123, 0.002562942, NaN, NaN, NaN, 0.0433376, "- N/A -   "
1.52, 54.4917, 0.00262681, NaN, NaN, NaN, 0.0445584, "- N/A -   "
1.56, 55.43531, 0.00269067, NaN, NaN, NaN, 0.04577916, "- N/A -   "
1.6, 56.6148, 0.00275731, NaN, NaN, NaN, 0.04577916, "- N/A -   "
1.64, 57.5584, 0.00282951, NaN, NaN, NaN, 0.0433376, "- N/A -   "
1.68, 59.0917, 0.00290726, NaN, NaN, NaN, 0.0384545, "- N/A -   "
1.72, 60.3891, 0.002987785, NaN, NaN, NaN, 0.0335714, "- N/A -   "
1.76, 61.56858, 0.00305998, NaN, NaN, NaN, 0.0299091, "- N/A -   "
1.8, 62.7481, 0.0031294, NaN, NaN, NaN, 0.0286883, "- N/A -   "
1.84, 63.80958, 0.00319604, NaN, NaN, NaN, 0.0286883, "- N/A -   "
1.88, 64.87111, 0.00325991, NaN, NaN, NaN, 0.03112983, "- N/A -   "
1.92, 66.05058, 0.003321, NaN, NaN, NaN, 0.0323506, "- N/A -   "
1.96, 67.1121, 0.003379307, NaN, NaN, NaN, 0.03601294, "- N/A -   "
2, 68.05569, 0.00344317, NaN, NaN, NaN, 0.0372337, "- N/A -   "
2.04, 69.35311, 0.00350981, NaN, NaN, NaN, 0.0372337, "- N/A -   "
2.08, 70.5326, 0.00357646, NaN, NaN, NaN, 0.0372337, "- N/A -   "
2.12, 71.4762, 0.00363477, NaN, NaN, NaN, 0.04089605, "- N/A -   "
2.16, 72.5377, 0.00369863, NaN, NaN, NaN, 0.04211683, "- N/A -   "
2.2, 73.83511, 0.0037625, NaN, NaN, NaN, 0.0433376, "- N/A -   "
2.24, 75.13254, 0.00383192, NaN, NaN, NaN, 0.04211683, "- N/A -   "
2.28, 76.43, 0.00390689, NaN, NaN, NaN, 0.0396753, "- N/A -   "
2.32, 77.84533, 0.00397909, NaN, NaN, NaN, 0.03601294, "- N/A -   "
2.36, 79.14275, 0.004051281, NaN, NaN, NaN, 0.0335714, "- N/A -   "
2.4, 80.55813, 0.004126253, NaN, NaN, NaN, 0.0299091, "- N/A -   "
2.44, 81.8555, 0.0041929, NaN, NaN, NaN, 0.03112983, "- N/A -   "
2.48, 83.03502, 0.004253984, NaN, NaN, NaN, 0.0323506, "- N/A -   "
2.52, 84.09654, 0.004315072, NaN, NaN, NaN, 0.0347922, "- N/A -   "
2.56, 85.15807, 0.00437894, NaN, NaN, NaN, 0.03601294, "- N/A -   "
2.6, 86.69139, 0.00445113, NaN, NaN, NaN, 0.0335714, "- N/A -   "
2.64, 87.9888, 0.00451778, NaN, NaN, NaN, 0.0335714, "- N/A -   "
2.68, 89.28623, 0.00458164, NaN, NaN, NaN, 0.0347922, "- N/A -   "
2.72, 90.4657, 0.004642729, NaN, NaN, NaN, 0.0372337, "- N/A -   "
2.76, 91.64519, 0.00470659, NaN, NaN, NaN, 0.0384545, "- N/A -   "
2.8, 92.82466, 0.004767683, NaN, NaN, NaN, 0.04089605, "- N/A -   "
2.84, 94.1221, 0.0048371, NaN, NaN, NaN, 0.0396753, "- N/A -   "
2.88, 95.5374, 0.00490374, NaN, NaN, NaN, 0.0396753, "- N/A -   "
2.92, 96.71693, 0.004967609, NaN, NaN, NaN, 0.04211683, "- N/A -   "
2.96, 98.13229, 0.005039805, NaN, NaN, NaN, 0.0396753, "- N/A -   "
3, 99.66561, 0.005114777, NaN, NaN, NaN, 0.0347922, "- N/A -   "
3.04, 100.963, 0.00517864, NaN, NaN, NaN, 0.03601294, "- N/A -   "
3.08, 102.143, 0.00524528, NaN, NaN, NaN, 0.03601294, "- N/A -   "
3.12, 103.558, 0.005314703, NaN, NaN, NaN, 0.0347922, "- N/A -   "
3.16, 105.091, 0.005386899, NaN, NaN, NaN, 0.0323506, "- N/A -   "
3.2, 106.389, 0.00545632, NaN, NaN, NaN, 0.0323506, "- N/A -   "
3.24, 107.568, 0.005514629, NaN, NaN, NaN, 0.0347922, "- N/A -   "
3.28, 108.866, 0.00558683, NaN, NaN, NaN, 0.0335714, "- N/A -   "
3.32, 110.163, 0.00564791, NaN, NaN, NaN, 0.0347922, "- N/A -   "
3.36, 111.342, 0.005709002, NaN, NaN, NaN, 0.0372337, "- N/A -   "
3.4, 112.758, 0.00577842, NaN, NaN, NaN, 0.03601294, "- N/A -   "
3.44, 114.173, 0.005850616, NaN, NaN, NaN, 0.0335714, "- N/A -   "
3.48, 115.235, 0.005908928, NaN, NaN, NaN, 0.0372337, "- N/A -   "
3.52, 116.5321, 0.00597557, NaN, NaN, NaN, 0.0372337, "- N/A -   "
3.56, 117.712, 0.00603666, NaN, NaN, NaN, 0.0396753, "- N/A -   "
3.6, 118.891, 0.00609775, NaN, NaN, NaN, 0.04211683, "- N/A -   "
3.64, 120.188, 0.006167166, NaN, NaN, NaN, 0.04211683, "- N/A -   "
3.68, 121.84, 0.00623936, NaN, NaN, NaN, 0.0396753, "- N/A -   "
3.72, 123.137, 0.00630878, NaN, NaN, NaN, 0.0384545, "- N/A -   "
3.76, 124.553, 0.00638375, NaN, NaN, NaN, 0.0347922, "- N/A -   "
3.8, 126.086, 0.006453172, NaN, NaN, NaN, 0.0335714, "- N/A -   "
3.84, 127.383, 0.006519814, NaN, NaN, NaN, 0.0335714, "- N/A -   "
3.88, 128.563, 0.00658646, NaN, NaN, NaN, 0.0335714, "- N/A -   "
3.92, 129.742, 0.00665032, NaN, NaN, NaN, 0.0347922, "- N/A -   "
3.96, 131.1576, 0.00671974, NaN, NaN, NaN, 0.0335714, "- N/A -   "
4, 132.6909, 0.006791935, NaN, NaN, NaN, 0.03112983, "- N/A -   "
4.04, 133.988, 0.00685858, NaN, NaN, NaN, 0.03112983, "- N/A -   "
4.08, 135.286, 0.006919666, NaN, NaN, NaN, 0.0335714, "- N/A -   "
4.12, 136.583, 0.00698075, NaN, NaN, NaN, 0.03601294, "- N/A -   "
4.16, 137.763, 0.00703629, NaN, NaN, NaN, 0.04089605, "- N/A -   "
4.2, 138.942, 0.00709738, NaN, NaN, NaN, 0.0433376, "- N/A -   "
4.24, 140.1216, 0.00715569, NaN, NaN, NaN, 0.04699994, "- N/A -   "
4.28, 141.537, 0.007222332, NaN, NaN, NaN, 0.04699994, "- N/A -   "
4.32, 143.07, 0.007294527, NaN, NaN, NaN, 0.0445584, "- N/A -   "
4.36, 144.722, 0.00737228, NaN, NaN, NaN, 0.04089605, "- N/A -   "
4.4, 146.3728, 0.00744447, NaN, NaN, NaN, 0.0372337, "- N/A -   "
4.44, 147.788, 0.00751389, NaN, NaN, NaN, 0.03601294, "- N/A -   "
4.48, 149.204, 0.00758609, NaN, NaN, NaN, 0.0335714, "- N/A -   "
4.52, 150.737, 0.007655505, NaN, NaN, NaN, 0.0323506, "- N/A -   "
4.56, 152.27, 0.0077277, NaN, NaN, NaN, 0.03112983, "- N/A -   "
4.6, 153.686, 0.007794343, NaN, NaN, NaN, 0.0299091, "- N/A -   "
4.64, 155.101, 0.007860985, NaN, NaN, NaN, 0.0299091, "- N/A -   "
4.68, 156.5163, 0.007924849, NaN, NaN, NaN, 0.03112983, "- N/A -   "
4.72, 157.578, 0.007983161, NaN, NaN, NaN, 0.0347922, "- N/A -   "
4.76, 158.7573, 0.008041473, NaN, NaN, NaN, 0.0384545, "- N/A -   "
4.8, 159.937, 0.008099785, NaN, NaN, NaN, 0.04211683, "- N/A -   "
4.84, 161.234, 0.008160873, NaN, NaN, NaN, 0.0445584, "- N/A -   "
4.88, 162.768, 0.008230293, NaN, NaN, NaN, 0.0433376, "- N/A -   "
4.92, 164.065, 0.008296935, NaN, NaN, NaN, 0.0433376, "- N/A -   "
4.96, 165.4803, 0.008363577, NaN, NaN, NaN, 0.0433376, "- N/A -   "
5, 167.014, 0.008433, NaN, NaN, NaN, 0.04211683, "- N/A -   "
5.04, 168.547, 0.008507968, NaN, NaN, NaN, 0.0384545, "- N/A -   "
5.08, 170.1982, 0.008580163, NaN, NaN, NaN, 0.03601294, "- N/A -   "
5.12, 171.732, 0.008657912, NaN, NaN, NaN, 0.03112983, "- N/A -   "
5.16, 173.1469, 0.008727332, NaN, NaN, NaN, 0.0299091, "- N/A -   "
5.2, 174.6802, 0.00879675, NaN, NaN, NaN, 0.0286883, "- N/A -   "
5.24, 175.978, 0.00886617, NaN, NaN, NaN, 0.0274675, "- N/A -   "
5.28, 177.1571, 0.008927258, NaN, NaN, NaN, 0.0299091, "- N/A -   "
5.32, 178.455, 0.00898557, NaN, NaN, NaN, 0.0335714, "- N/A -   "
5.36, 179.752, 0.009046658, NaN, NaN, NaN, 0.03601294, "- N/A -   "
5.4, 181.049, 0.009110523, NaN, NaN, NaN, 0.0372337, "- N/A -   "
5.44, 182.583, 0.009182718, NaN, NaN, NaN, 0.0347922, "- N/A -   "
5.48, 183.8801, 0.009243808, NaN, NaN, NaN, 0.0372337, "- N/A -   "
5.52, 184.942, 0.009302118, NaN, NaN, NaN, 0.04089605, "- N/A -   "
5.56, 186.239, 0.009363208, NaN, NaN, NaN, 0.0433376, "- N/A -   "
5.6, 187.536, 0.00942707, NaN, NaN, NaN, 0.0445584, "- N/A -   "
5.64, 188.834, 0.009493714, NaN, NaN, NaN, 0.04577916, "- N/A -   "
5.68, 190.485, 0.009568687, NaN, NaN, NaN, 0.04089605, "- N/A -   "
5.72, 192.136, 0.009646436, NaN, NaN, NaN, 0.03601294, "- N/A -   "
5.76, 193.67, 0.009721409, NaN, NaN, NaN, 0.0323506, "- N/A -   "
5.8, 195.085, 0.00979083, NaN, NaN, NaN, 0.03112983, "- N/A -   "
5.84, 196.147, 0.009854692, NaN, NaN, NaN, 0.0323506, "- N/A -   "
5.88, 197.444, 0.009915782, NaN, NaN, NaN, 0.0347922, "- N/A -   "
5.92, 198.741, 0.009979647, NaN, NaN, NaN, 0.03601294, "- N/A -   "
5.96, 200.157, 0.0100491, NaN, NaN, NaN, 0.0347922, "- N/A -   "
5.98, 200.865, 0.0100852, NaN, NaN, NaN, 0.0335714, "- N/A -   "
5.99, 201.1, 0.010099, NaN, NaN, NaN, 0.0347922, "- N/A -   "
6, 201.454, 0.0101157, NaN, NaN, NaN, 0.0347922, "- N/A -   "
6.02, 202.044, 0.0101518, NaN, NaN, NaN, 0.0335714, "- N/A -   "
6.04, 202.87, 0.0101879, NaN, NaN, NaN, 0.0323506, "- N/A -   "
6.06, 203.459, 0.0102184, NaN, NaN, NaN, 0.0335714, "- N/A -   "
6.08, 204.049, 0.0102518, NaN, NaN, NaN, 0.0335714, "- N/A -   "
6.1, 204.639, 0.0102823, NaN, NaN, NaN, 0.0347922, "- N/A -   "
6.12, 205.2286, 0.0103156, NaN, NaN, NaN, 0.0347922, "- N/A -   "
6.14, 205.936, 0.0103462, NaN, NaN, NaN, 0.03601294, "- N/A -   "
6.16, 206.526, 0.0103739, NaN, NaN, NaN, 0.0384545, "- N/A -   "
6.18, 206.9978, 0.0104017, NaN, NaN, NaN, 0.04089605, "- N/A -   "
6.2, 207.4696, 0.0104323, NaN, NaN, NaN, 0.0433376, "- N/A -   "
6.22, 208.059, 0.0104628, NaN, NaN, NaN, 0.0433376, "- N/A -   "
6.24, 208.885, 0.0104961, NaN, NaN, NaN, 0.0433376, "- N/A -   "
6.26, 209.593, 0.01053222, NaN, NaN, NaN, 0.04211683, "- N/A -   "
6.28, 210.418, 0.0105739, NaN, NaN, NaN, 0.0396753, "- N/A -   "
6.3, 211.126, 0.0106072, NaN, NaN, NaN, 0.0384545, "- N/A -   "
6.32, 211.716, 0.0106377, NaN, NaN, NaN, 0.0396753, "- N/A -   "
6.34, 212.305, 0.0106683, NaN, NaN, NaN, 0.04089605, "- N/A -   "
6.36, 213.013, 0.0107044, NaN, NaN, NaN, 0.0396753, "- N/A -   "
6.38, 213.721, 0.0107405, NaN, NaN, NaN, 0.0384545, "- N/A -   "
6.4, 214.546, 0.0107794, NaN, NaN, NaN, 0.0372337, "- N/A -   "
6.42, 215.136, 0.0108127, NaN, NaN, NaN, 0.03601294, "- N/A -   "
6.44, 215.962, 0.0108515, NaN, NaN, NaN, 0.0335714, "- N/A -   "
6.46, 216.67, 0.0108876, NaN, NaN, NaN, 0.0323506, "- N/A -   "
6.48, 217.377, 0.010921, NaN, NaN, NaN, 0.0335714, "- N/A -   "
6.5, 217.849, 0.0109515, NaN, NaN, NaN, 0.0347922, "- N/A -   "
6.52, 218.321, 0.0109793, NaN, NaN, NaN, 0.03601294, "- N/A -   "
6.54, 218.9105, 0.0110098, NaN, NaN, NaN, 0.0372337, "- N/A -   "
6.56, 219.736, 0.0110431, NaN, NaN, NaN, 0.0372337, "- N/A -   "
6.58, 220.444, 0.011082, NaN, NaN, NaN, 0.0347922, "- N/A -   "
6.6, 221.269, 0.0111181, NaN, NaN, NaN, 0.0335714, "- N/A -   "
6.62, 221.859, 0.0111542, NaN, NaN, NaN, 0.0323506, "- N/A -   "
6.64, 222.567, 0.0111903, NaN, NaN, NaN, 0.03112983, "- N/A -   "
6.66, 223.3925, 0.0112236, NaN, NaN, NaN, 0.03112983, "- N/A -   "
6.68, 223.982, 0.011257, NaN, NaN, NaN, 0.03112983, "- N/A -   "
6.7, 224.572, 0.0112903, NaN, NaN, NaN, 0.03112983, "- N/A -   "
6.72, 225.162, 0.0113208, NaN, NaN, NaN, 0.0323506, "- N/A -   "
6.74, 225.751, 0.0113514, NaN, NaN, NaN, 0.0335714, "- N/A -   "
6.76, 226.459, 0.0113847, NaN, NaN, NaN, 0.0347922, "- N/A -   "
6.78, 227.049, 0.0114152, NaN, NaN, NaN, 0.0347922, "- N/A -   "
6.8, 227.875, 0.0114541, NaN, NaN, NaN, 0.0323506, "- N/A -   "
6.82, 228.5822, 0.0114902, NaN, NaN, NaN, 0.03112983, "- N/A -   "
6.84, 229.172, 0.0115207, NaN, NaN, NaN, 0.0323506, "- N/A -   "
6.86, 229.762, 0.0115513, NaN, NaN, NaN, 0.0335714, "- N/A -   "
6.88, 230.351, 0.0115791, NaN, NaN, NaN, 0.03601294, "- N/A -   "
6.9, 230.941, 0.0116096, NaN, NaN, NaN, 0.0372337, "- N/A -   "
6.92, 231.531, 0.0116401, NaN, NaN, NaN, 0.0384545, "- N/A -   "
6.94, 232.121, 0.0116735, NaN, NaN, NaN, 0.0384545, "- N/A -   "
6.96, 232.71, 0.011704, NaN, NaN, NaN, 0.04089605, "- N/A -   "
6.98, 233.418, 0.0117346, NaN, NaN, NaN, 0.04211683, "- N/A -   "
7, 233.89, 0.0117651, NaN, NaN, NaN, 0.04211683, "- N/A -   "
7.02, 234.598, 0.0117956, NaN, NaN, NaN, 0.0445584, "- N/A -   "
7.04, 235.3052, 0.0118262, NaN, NaN, NaN, 0.0445584, "- N/A -   "
7.06, 235.895, 0.0118595, NaN, NaN, NaN, 0.0445584, "- N/A -   "
7.08, 236.721, 0.0118956, NaN, NaN, NaN, 0.0433376, "- N/A -   "
7.1, 237.428, 0.01193448, NaN, NaN, NaN, 0.04211683, "- N/A -   "
7.12, 238.254, 0.0119706, NaN, NaN, NaN, 0.0396753, "- N/A -   "
7.14, 239.08, 0.0120122, NaN, NaN, NaN, 0.03601294, "- N/A -   "
7.16, 239.905, 0.0120511, NaN, NaN, NaN, 0.0347922, "- N/A -   "
7.18, 240.613, 0.0120872, NaN, NaN, NaN, 0.0335714, "- N/A -   "
7.2, 241.203, 0.0121177, NaN, NaN, NaN, 0.0335714, "- N/A -   "
7.22, 241.792, 0.01214829, NaN, NaN, NaN, 0.0347922, "- N/A -   "
7.24, 242.5, 0.0121844, NaN, NaN, NaN, 0.0335714, "- N/A -   "
7.26, 243.207, 0.0122177, NaN, NaN, NaN, 0.0347922, "- N/A -   "
7.28, 243.7961, 0.0122483, NaN, NaN, NaN, 0.0347922, "- N/A -   "
7.3, 244.503, 0.0122816, NaN, NaN, NaN, 0.0347922, "- N/A -   "
7.32, 245.092, 0.0123149, NaN, NaN, NaN, 0.0347922, "- N/A -   "
7.34, 245.799, 0.012351, NaN, NaN, NaN, 0.0335714, "- N/A -   "
7.36, 246.624, 0.0123899, NaN, NaN, NaN, 0.0323506, "- N/A -   "
7.38, 247.4487, 0.0124287, NaN, NaN, NaN, 0.0286883, "- N/A -   "
7.4, 248.156, 0.0124676, NaN, NaN, NaN, 0.0262467, "- N/A -   "
7.42, 248.863, 0.01249816, NaN, NaN, NaN, 0.0274675, "- N/A -   "
7.44, 249.452, 0.0125287, NaN, NaN, NaN, 0.0299091, "- N/A -   "
7.46, 250.041, 0.012562, NaN, NaN, NaN, 0.0299091, "- N/A -   "
[...]
34.52, 1381.01, 0.0576537, NaN, NaN, NaN, 0.0323506, "- N/A -   "
34.55, 1382.32, 0.0577065, NaN, NaN, NaN, 0.0323506, "- N/A -   "
34.58, 1383.52, 0.05774811, NaN, NaN, NaN, 0.0347922, "- N/A -   "
34.61, 1384.83, 0.0578009, NaN, NaN, NaN, 0.0347922, "- N/A -   "
34.64, 1386.26, 0.0578536, NaN, NaN, NaN, 0.0323506, "- N/A -   "
34.67, 1387.81, 0.05790916, NaN, NaN, NaN, 0.0299091, "- N/A -   "
34.7, 1389.24, 0.05796192, NaN, NaN, NaN, 0.0286883, "- N/A -   "
34.73, 1390.55, 0.0580119, NaN, NaN, NaN, 0.0286883, "- N/A -   "
34.76, 1391.74, 0.0580591, NaN, NaN, NaN, 0.0299091, "- N/A -   "
34.79, 1393.056, 0.0581035, NaN, NaN, NaN, 0.0323506, "- N/A -   "
34.82, 1394.13, 0.05814796, NaN, NaN, NaN, 0.0347922, "- N/A -   "
34.85, 1395.2, 0.0581896, NaN, NaN, NaN, 0.0384545, "- N/A -   "
34.88, 1396.4, 0.05823404, NaN, NaN, NaN, 0.04089605, "- N/A -   "
34.91, 1397.59, 0.0582785, NaN, NaN, NaN, 0.0433376, "- N/A -   "
34.94, 1398.78, 0.0583229, NaN, NaN, NaN, 0.04577916, "- N/A -   "
34.97, 1399.97, 0.05837288, NaN, NaN, NaN, 0.04577916, "- N/A -   "
35, 1401.4, 0.05842286, NaN, NaN, NaN, 0.04577916, "- N/A -   "
35.03, 1402.954, 0.0584784, NaN, NaN, NaN, 0.0433376, "- N/A -   "
35.06, 1404.62, 0.0585367, NaN, NaN, NaN, 0.0396753, "- N/A -   "
35.09, 1406.05, 0.058595, NaN, NaN, NaN, 0.03601294, "- N/A -   "
35.12, 1407.6, 0.0586533, NaN, NaN, NaN, 0.0323506, "- N/A -   "
35.15, 1409.04, 0.05870331, NaN, NaN, NaN, 0.0323506, "- N/A -   "
35.18, 1410.35, 0.0587533, NaN, NaN, NaN, 0.0323506, "- N/A -   "
35.21, 1411.78, 0.05880327, NaN, NaN, NaN, 0.0323506, "- N/A -   "
35.24, 1413.09, 0.05885603, NaN, NaN, NaN, 0.03112983, "- N/A -   "
35.27, 1414.4, 0.0589116, NaN, NaN, NaN, 0.0299091, "- N/A -   "
35.3, 1415.83, 0.0589588, NaN, NaN, NaN, 0.03112983, "- N/A -   "
35.33, 1417.14, 0.0590115, NaN, NaN, NaN, 0.0299091, "- N/A -   "
35.36, 1418.58, 0.0590615, NaN, NaN, NaN, 0.0299091, "- N/A -   "
35.39, 1419.65, 0.05910594, NaN, NaN, NaN, 0.0323506, "- N/A -   "
35.42, 1420.84, 0.0591504, NaN, NaN, NaN, 0.0347922, "- N/A -   "
35.45, 1422.15, 0.0591948, NaN, NaN, NaN, 0.0372337, "- N/A -   "
35.48, 1423.23, 0.059242, NaN, NaN, NaN, 0.0396753, "- N/A -   "
35.51, 1424.3, 0.05928365, NaN, NaN, NaN, 0.04211683, "- N/A -   "
35.54, 1425.49, 0.0593281, NaN, NaN, NaN, 0.0445584, "- N/A -   "
35.57, 1426.8, 0.0593753, NaN, NaN, NaN, 0.04577916, "- N/A -   "
35.6, 1428.24, 0.059428, NaN, NaN, NaN, 0.0445584, "- N/A -   "
35.63, 1429.55, 0.059478, NaN, NaN, NaN, 0.0445584, "- N/A -   "
35.66, 1430.86, 0.0595308, NaN, NaN, NaN, 0.0433376, "- N/A -   "
35.69, 1432.29, 0.0595808, NaN, NaN, NaN, 0.0433376, "- N/A -   "
35.72, 1433.6, 0.0596307, NaN, NaN, NaN, 0.0433376, "- N/A -   "
35.75, 1435.03, 0.0596863, NaN, NaN, NaN, 0.04211683, "- N/A -   "
35.78, 1436.46, 0.0597363, NaN, NaN, NaN, 0.04089605, "- N/A -   "
35.81, 1438.13, 0.0597974, NaN, NaN, NaN, 0.03601294, "- N/A -   "
35.84, 1439.922, 0.0598612, NaN, NaN, NaN, 0.0299091, "- N/A -   "
35.87, 1441.353, 0.0599168, NaN, NaN, NaN, 0.0274675, "- N/A -   "
35.9, 1442.55, 0.059964, NaN, NaN, NaN, 0.0286883, "- N/A -   "
35.93, 1443.74, 0.06001116, NaN, NaN, NaN, 0.0299091, "- N/A -   "
35.96, 1445.17, 0.0600584, NaN, NaN, NaN, 0.03112983, "- N/A -   "
35.99, 1446.12, 0.0601028, NaN, NaN, NaN, 0.0335714, "- N/A -   "
36.02, 1447.32, 0.0601472, NaN, NaN, NaN, 0.03601294, "- N/A -   "
36.05, 1448.63, 0.0601944, NaN, NaN, NaN, 0.0372337, "- N/A -   "
36.08, 1449.94, 0.0602444, NaN, NaN, NaN, 0.0384545, "- N/A -   "
36.11, 1451.13, 0.0602916, NaN, NaN, NaN, 0.0384545, "- N/A -   "
36.14, 1452.56, 0.0603444, NaN, NaN, NaN, 0.0372337, "- N/A -   "
36.17, 1453.99, 0.06039713, NaN, NaN, NaN, 0.03601294, "- N/A -   "
36.2, 1455.19, 0.0604416, NaN, NaN, NaN, 0.0384545, "- N/A -   "
36.23, 1456.38, 0.06048599, NaN, NaN, NaN, 0.04089605, "- N/A -   "
36.26, 1457.452, 0.0605304, NaN, NaN, NaN, 0.0445584, "- N/A -   "
36.29, 1458.76, 0.06057762, NaN, NaN, NaN, 0.0445584, "- N/A -   "
36.32, 1459.84, 0.0606248, NaN, NaN, NaN, 0.04577916, "- N/A -   "
36.35, 1461.27, 0.0606748, NaN, NaN, NaN, 0.04577916, "- N/A -   "
36.38, 1462.82, 0.0607331, NaN, NaN, NaN, 0.0433376, "- N/A -   "
36.41, 1464.49, 0.06079143, NaN, NaN, NaN, 0.0384545, "- N/A -   "
36.44, 1466.04, 0.0608525, NaN, NaN, NaN, 0.0335714, "- N/A -   "
36.47, 1467.59, 0.0609081, NaN, NaN, NaN, 0.03112983, "- N/A -   "
36.5, 1469.14, 0.06096359, NaN, NaN, NaN, 0.0286883, "- N/A -   "
36.53, 1470.45, 0.06101357, NaN, NaN, NaN, 0.0286883, "- N/A -   "
36.56, 1471.52, 0.061058, NaN, NaN, NaN, 0.03112983, "- N/A -   "
36.59, 1472.72, 0.0611024, NaN, NaN, NaN, 0.0335714, "- N/A -   "
36.62, 1473.79, 0.0611469, NaN, NaN, NaN, 0.03601294, "- N/A -   "
36.65, 1474.98, 0.0611968, NaN, NaN, NaN, 0.0372337, "- N/A -   "
36.68, 1476.29, 0.06124404, NaN, NaN, NaN, 0.0372337, "- N/A -   "
36.71, 1477.84, 0.0612996, NaN, NaN, NaN, 0.0347922, "- N/A -   "
36.74, 1479.156, 0.06135233, NaN, NaN, NaN, 0.0335714, "- N/A -   "
36.77, 1480.47, 0.0613995, NaN, NaN, NaN, 0.0347922, "- N/A -   "
36.8, 1481.78, 0.06144952, NaN, NaN, NaN, 0.0347922, "- N/A -   "
36.83, 1482.972, 0.0614939, NaN, NaN, NaN, 0.0372337, "- N/A -   "
36.86, 1484.16, 0.0615384, NaN, NaN, NaN, 0.0396753, "- N/A -   "
36.89, 1485.36, 0.0615828, NaN, NaN, NaN, 0.04211683, "- N/A -   "
36.92, 1486.43, 0.06163, NaN, NaN, NaN, 0.0433376, "- N/A -   "
36.95, 1487.98, 0.0616828, NaN, NaN, NaN, 0.04211683, "- N/A -   "
36.98, 1489.29, 0.0617355, NaN, NaN, NaN, 0.04089605, "- N/A -   "
37.01, 1490.72, 0.06178828, NaN, NaN, NaN, 0.04089605, "- N/A -   "
37.04, 1492.04, 0.06183549, NaN, NaN, NaN, 0.04089605, "- N/A -   "
37.07, 1493.35, 0.0618882, NaN, NaN, NaN, 0.0396753, "- N/A -   "
37.1, 1494.9, 0.06194378, NaN, NaN, NaN, 0.0372337, "- N/A -   "
37.13, 1496.209, 0.0619938, NaN, NaN, NaN, 0.0372337, "- N/A -   "
37.16, 1497.52, 0.062041, NaN, NaN, NaN, 0.0384545, "- N/A -   "
37.19, 1498.71, 0.06209095, NaN, NaN, NaN, 0.0384545, "- N/A -   "
37.22, 1499.91, 0.06214093, NaN, NaN, NaN, 0.0384545, "- N/A -   "
37.25, 1501.69, 0.0621992, NaN, NaN, NaN, 0.0347922, "- N/A -   "
37.28, 1503.13, 0.0622548, NaN, NaN, NaN, 0.0323506, "- N/A -   "
37.31, 1504.44, 0.0623075, NaN, NaN, NaN, 0.03112983, "- N/A -   "
37.34, 1505.63, 0.0623547, NaN, NaN, NaN, 0.0323506, "- N/A -   "
37.37, 1506.94, 0.0624019, NaN, NaN, NaN, 0.0335714, "- N/A -   "
37.4, 1508.13, 0.0624519, NaN, NaN, NaN, 0.0335714, "- N/A -   "
37.43, 1509.57, 0.06250191, NaN, NaN, NaN, 0.0335714, "- N/A -   "
37.46, 1510.76, 0.06255189, NaN, NaN, NaN, 0.0335714, "- N/A -   "
37.49, 1512.07, 0.06260465, NaN, NaN, NaN, 0.0335714, "- N/A -   "
37.52, 1513.5, 0.06265463, NaN, NaN, NaN, 0.0323506, "- N/A -   "
37.55, 1514.693, 0.0627018, NaN, NaN, NaN, 0.0335714, "- N/A -   "
37.58, 1515.77, 0.0627463, NaN, NaN, NaN, 0.03601294, "- N/A -   "
37.61, 1516.84, 0.06279069, NaN, NaN, NaN, 0.0384545, "- N/A -   "
37.64, 1518.15, 0.06283512, NaN, NaN, NaN, 0.04089605, "- N/A -   "
37.67, 1519.34, 0.06288233, NaN, NaN, NaN, 0.04211683, "- N/A -   "
37.7, 1520.42, 0.06292675, NaN, NaN, NaN, 0.0445584, "- N/A -   "
37.73, 1521.729, 0.062974, NaN, NaN, NaN, 0.04577916, "- N/A -   "
37.76, 1523.16, 0.06302394, NaN, NaN, NaN, 0.04577916, "- N/A -   "
37.79, 1524.591, 0.06307948, NaN, NaN, NaN, 0.0433376, "- N/A -   "
37.82, 1526.022, 0.063135, NaN, NaN, NaN, 0.04089605, "- N/A -   "
37.85, 1527.57, 0.06319609, NaN, NaN, NaN, 0.03601294, "- N/A -   "
37.88, 1529.12, 0.06325441, NaN, NaN, NaN, 0.0335714, "- N/A -   "
37.91, 1530.67, 0.06330439, NaN, NaN, NaN, 0.0323506, "- N/A -   "
37.94, 1531.87, 0.0633571, NaN, NaN, NaN, 0.03112983, "- N/A -   "
37.97, 1533.18, 0.06340713, NaN, NaN, NaN, 0.03112983, "- N/A -   "
38, 1534.37, 0.06345434, NaN, NaN, NaN, 0.0323506, "- N/A -   "
38.03, 1535.68, 0.0635043, NaN, NaN, NaN, 0.0323506, "- N/A -   "
38.06, 1537.11, 0.06355985, NaN, NaN, NaN, 0.03112983, "- N/A -   "
38.09, 1538.42, 0.06361261, NaN, NaN, NaN, 0.0286883, "- N/A -   "
38.12, 1539.736, 0.06366259, NaN, NaN, NaN, 0.0286883, "- N/A -   "
38.15, 1541.05, 0.0637098, NaN, NaN, NaN, 0.0299091, "- N/A -   "
38.18, 1542.12, 0.06375422, NaN, NaN, NaN, 0.0323506, "- N/A -   "
38.21, 1543.31, 0.06380143, NaN, NaN, NaN, 0.0335714, "- N/A -   "
38.24, 1544.506, 0.06384864, NaN, NaN, NaN, 0.0347922, "- N/A -   "
38.27, 1545.58, 0.06389306, NaN, NaN, NaN, 0.0372337, "- N/A -   "
38.3, 1546.65, 0.0639319, NaN, NaN, NaN, 0.04211683, "- N/A -   "
38.33, 1547.61, 0.06397359, NaN, NaN, NaN, 0.04577916, "- N/A -   "
38.36, 1548.92, 0.06402079, NaN, NaN, NaN, 0.04699994, "- N/A -   "
38.389, 1550.23, 0.0640708, NaN, NaN, NaN, 0.04699994, "- N/A -   "