File: 2_Tensile_Data/Hamel_ForceTest_Bolt8_Test10.csv
Time, Load (lb), Position (in), AxialStrain (in), TransverseStrain (in), Auxiliary (), Control Out (V), Stress (psi)
0.0, 14.5075, 0.0, NaN, NaN, NaN, -0.007935055, "- N/A -   "
0.01, 14.5075, 2.776752E-6, NaN, NaN, NaN, -6.103888E-4, "- N/A -   "
0.02, 14.5075, 2.776752E-6, NaN, NaN, NaN, 0.006714277, "- N/A -   "
0.03, 14.5075, 5.553504E-6, NaN, NaN, NaN, 0.0238052, "- N/A -   "
0.04, 14.5075, 8.330256E-6, NaN, NaN, NaN, 0.04211683, "- N/A -   "
0.05, 14.7434, 1.94373e-05, NaN, NaN, NaN, 0.05676616, "- N/A -   "
0.06, 15.0973, 3.3321e-05, NaN, NaN, NaN, 0.0701947, "- N/A -   "
0.07, 15.4511, 5.27583e-05, NaN, NaN, NaN, 0.08118171, "- N/A -   "
0.08, 16.0409, 7.774905E-5, NaN, NaN, NaN, 0.0897272, "- N/A -   "
0.09, 16.6306, 0.000105517, NaN, NaN, NaN, 0.09705182, "- N/A -   "
0.1, 17.3383, 0.000133284, NaN, NaN, NaN, 0.104376, "- N/A -   "
0.11, 17.928, 0.000166605, NaN, NaN, NaN, 0.09705182, "- N/A -   "
0.12, 18.6357, 0.000199926, NaN, NaN, NaN, 0.09094793, "- N/A -   "
0.13, 19.2254, 0.000227694, NaN, NaN, NaN, 0.08606482, "- N/A -   "
0.14, 19.8152, 0.000255461, NaN, NaN, NaN, 0.08118171, "- N/A -   "
0.15, 20.4049, 2.776752E-4, NaN, NaN, NaN, 0.07751938, "- N/A -   "
0.16, 20.99465, 2.998892E-4, NaN, NaN, NaN, 0.0750778, "- N/A -   "
0.17, 21.3485, 3.221032E-4, NaN, NaN, NaN, 0.07263627, "- N/A -   "
0.18, 21.7023, 0.000344317, NaN, NaN, NaN, 0.07141549, "- N/A -   "
0.19, 22.0562, 3.637545E-4, NaN, NaN, NaN, 0.0689739, "- N/A -   "
0.2, 22.41, 0.000383192, NaN, NaN, NaN, 0.06775316, "- N/A -   "
0.21, 22.88181, 0.000402629, NaN, NaN, NaN, 0.06775316, "- N/A -   "
0.22, 23.2357, 0.000422066, NaN, NaN, NaN, 0.0653116, "- N/A -   "
0.23, 23.7074, 0.000441504, NaN, NaN, NaN, 0.0653116, "- N/A -   "
0.24, 24.1792, 0.000458164, NaN, NaN, NaN, 0.0640908, "- N/A -   "
0.25, 24.4151, 4.776013E-4, NaN, NaN, NaN, 0.06287005, "- N/A -   "
0.26, 24.769, 4.970386E-4, NaN, NaN, NaN, 0.06164927, "- N/A -   "
0.27, 25.2408, 5.164758E-4, NaN, NaN, NaN, 0.0604285, "- N/A -   "
0.28, 25.5946, 5.359131E-4, NaN, NaN, NaN, 0.0604285, "- N/A -   "
0.29, 26.0664, 5.553504E-4, NaN, NaN, NaN, 0.0592077, "- N/A -   "
0.3, 26.4202, 5.747876E-4, NaN, NaN, NaN, 0.05676616, "- N/A -   "
0.31, 26.7741, 0.000597002, NaN, NaN, NaN, 0.0543246, "- N/A -   "
0.32, 27.2459, 0.000619216, NaN, NaN, NaN, 0.0531038, "- N/A -   "
0.33, 27.7177, 6.414297E-4, NaN, NaN, NaN, 0.05066227, "- N/A -   "
0.34, 28.1894, 6.608669E-4, NaN, NaN, NaN, 0.0482207, "- N/A -   "
0.35, 28.6612, 6.803042E-4, NaN, NaN, NaN, 0.04699994, "- N/A -   "
0.36, 28.89713, 6.997415E-4, NaN, NaN, NaN, 0.04577916, "- N/A -   "
0.37, 29.251, 7.191787E-4, NaN, NaN, NaN, 0.0445584, "- N/A -   "
0.38, 29.7228, 7.413927E-4, NaN, NaN, NaN, 0.0433376, "- N/A -   "
0.39, 30.0766, 7.6083E-4, NaN, NaN, NaN, 0.04211683, "- N/A -   "
0.4, 30.4304, 7.774905E-4, NaN, NaN, NaN, 0.04089605, "- N/A -   "
0.44, 31.9638, 0.000849686, NaN, NaN, NaN, 0.0384545, "- N/A -   "
0.48, 33.2612, 0.000919105, NaN, NaN, NaN, 0.0372337, "- N/A -   "
0.52, 34.7945, 9.968539E-4, NaN, NaN, NaN, 0.0335714, "- N/A -   "
0.56, 36.44577, 0.00106627, NaN, NaN, NaN, 0.03112983, "- N/A -   "
0.6, 37.74319, 0.00113291, NaN, NaN, NaN, 0.03112983, "- N/A -   "
0.64, 39.04061, 0.00119956, NaN, NaN, NaN, 0.03112983, "- N/A -   "
0.68, 40.33803, 0.00126342, NaN, NaN, NaN, 0.0323506, "- N/A -   "
0.72, 41.51751, 0.00132173, NaN, NaN, NaN, 0.03601294, "- N/A -   "
0.76, 42.8149, 0.0013856, NaN, NaN, NaN, 0.0372337, "- N/A -   "
0.8, 43.87646, 0.001443911, NaN, NaN, NaN, 0.04211683, "- N/A -   "
0.84, 45.05593, 0.001499446, NaN, NaN, NaN, 0.04577916, "- N/A -   "
0.88, 46.5893, 0.00156609, NaN, NaN, NaN, 0.04577916, "- N/A -   "
0.92, 48.00462, 0.00163551, NaN, NaN, NaN, 0.0445584, "- N/A -   "
0.96, 49.6559, 0.0017077, NaN, NaN, NaN, 0.04211683, "- N/A -   "
1, 51.0713, 0.00177712, NaN, NaN, NaN, 0.04089605, "- N/A -   "
1.04, 52.48662, 0.00184932, NaN, NaN, NaN, 0.0384545, "- N/A -   "
1.08, 54.13789, 0.00192707, NaN, NaN, NaN, 0.0347922, "- N/A -   "
1.12, 55.6712, 0.00199926, NaN, NaN, NaN, 0.03112983, "- N/A -   "
1.16, 57.32247, 0.00207146, NaN, NaN, NaN, 0.0286883, "- N/A -   "
1.2, 58.7378, 0.00214088, NaN, NaN, NaN, 0.0274675, "- N/A -   "
1.24, 60.15321, 0.002204741, NaN, NaN, NaN, 0.0286883, "- N/A -   "
1.28, 61.56858, 0.00226583, NaN, NaN, NaN, 0.03112983, "- N/A -   "
1.32, 62.866, 0.00232969, NaN, NaN, NaN, 0.0323506, "- N/A -   "
1.36, 64.04548, 0.00239356, NaN, NaN, NaN, 0.0347922, "- N/A -   "
1.4, 65.3429, 0.00245465, NaN, NaN, NaN, 0.0372337, "- N/A -   "
1.44, 66.87622, 0.00252129, NaN, NaN, NaN, 0.0372337, "- N/A -   "
1.48, 68.17364, 0.0025796, NaN, NaN, NaN, 0.0396753, "- N/A -   "
1.52, 69.47106, 0.00264347, NaN, NaN, NaN, 0.04089605, "- N/A -   "
1.56, 70.88643, 0.00270456, NaN, NaN, NaN, 0.0433376, "- N/A -   "
1.6, 72.06591, 0.00276564, NaN, NaN, NaN, 0.04577916, "- N/A -   "
1.64, 73.71717, 0.00283229, NaN, NaN, NaN, 0.04577916, "- N/A -   "
1.68, 75.48638, 0.00291281, NaN, NaN, NaN, 0.04089605, "- N/A -   "
1.72, 77.0197, 0.002987785, NaN, NaN, NaN, 0.0372337, "- N/A -   "
1.76, 78.67096, 0.00305998, NaN, NaN, NaN, 0.0335714, "- N/A -   "
1.8, 80.32223, 0.00313218, NaN, NaN, NaN, 0.0323506, "- N/A -   "
1.84, 81.61965, 0.00319326, NaN, NaN, NaN, 0.0335714, "- N/A -   "
1.88, 82.91707, 0.003254353, NaN, NaN, NaN, 0.03601294, "- N/A -   "
1.92, 84.21449, 0.00331544, NaN, NaN, NaN, 0.0384545, "- N/A -   "
1.96, 85.74781, 0.00338486, NaN, NaN, NaN, 0.0372337, "- N/A -   "
2, 87.51702, 0.00346261, NaN, NaN, NaN, 0.0323506, "- N/A -   "
2.04, 88.9324, 0.00352925, NaN, NaN, NaN, 0.0323506, "- N/A -   "
2.08, 90.34776, 0.00359312, NaN, NaN, NaN, 0.0347922, "- N/A -   "
2.12, 91.76313, 0.00365143, NaN, NaN, NaN, 0.0372337, "- N/A -   "
2.16, 93.1785, 0.003715294, NaN, NaN, NaN, 0.0384545, "- N/A -   "
2.2, 94.47592, 0.00377638, NaN, NaN, NaN, 0.04211683, "- N/A -   "
2.24, 96.24514, 0.0038458, NaN, NaN, NaN, 0.0396753, "- N/A -   "
2.28, 97.54256, 0.00390967, NaN, NaN, NaN, 0.04089605, "- N/A -   "
2.32, 99.0759, 0.00397909, NaN, NaN, NaN, 0.0396753, "- N/A -   "
2.36, 100.6092, 0.004051281, NaN, NaN, NaN, 0.0372337, "- N/A -   "
2.4, 102.26, 0.004123477, NaN, NaN, NaN, 0.03601294, "- N/A -   "
2.44, 103.794, 0.004187342, NaN, NaN, NaN, 0.03601294, "- N/A -   "
2.48, 105.327, 0.004253984, NaN, NaN, NaN, 0.03601294, "- N/A -   "
2.52, 106.86, 0.00432063, NaN, NaN, NaN, 0.03601294, "- N/A -   "
2.56, 108.512, 0.004395598, NaN, NaN, NaN, 0.0323506, "- N/A -   "
2.6, 110.163, 0.00446779, NaN, NaN, NaN, 0.03112983, "- N/A -   "
2.64, 111.696, 0.004534436, NaN, NaN, NaN, 0.03112983, "- N/A -   "
2.68, 113.23, 0.004598301, NaN, NaN, NaN, 0.03112983, "- N/A -   "
2.72, 114.645, 0.00466217, NaN, NaN, NaN, 0.0323506, "- N/A -   "
2.76, 116.178, 0.00472881, NaN, NaN, NaN, 0.0335714, "- N/A -   "
2.8, 117.594, 0.00479267, NaN, NaN, NaN, 0.0347922, "- N/A -   "
2.84, 118.891, 0.004853762, NaN, NaN, NaN, 0.03601294, "- N/A -   "
2.88, 120.542, 0.004917627, NaN, NaN, NaN, 0.0384545, "- N/A -   "
2.92, 121.84, 0.004978716, NaN, NaN, NaN, 0.0396753, "- N/A -   "
2.96, 123.373, 0.00504258, NaN, NaN, NaN, 0.04089605, "- N/A -   "
3, 124.67, 0.00510367, NaN, NaN, NaN, 0.0433376, "- N/A -   "
3.04, 126.204, 0.00516476, NaN, NaN, NaN, 0.04577916, "- N/A -   "
3.08, 128.091, 0.00523973, NaN, NaN, NaN, 0.04211683, "- N/A -   "
3.12, 129.742, 0.00531748, NaN, NaN, NaN, 0.0384545, "- N/A -   "
3.16, 131.629, 0.00539523, NaN, NaN, NaN, 0.0323506, "- N/A -   "
3.2, 133.163, 0.00545909, NaN, NaN, NaN, 0.0335714, "- N/A -   "
3.24, 134.578, 0.00552296, NaN, NaN, NaN, 0.0347922, "- N/A -   "
3.28, 135.993, 0.005586825, NaN, NaN, NaN, 0.03601294, "- N/A -   "
3.32, 137.763, 0.00565347, NaN, NaN, NaN, 0.03601294, "- N/A -   "
3.36, 139.414, 0.00573122, NaN, NaN, NaN, 0.0323506, "- N/A -   "
3.4, 141.183, 0.00580341, NaN, NaN, NaN, 0.0286883, "- N/A -   "
3.44, 142.5985, 0.005867277, NaN, NaN, NaN, 0.0299091, "- N/A -   "
3.48, 144.132, 0.005928365, NaN, NaN, NaN, 0.0335714, "- N/A -   "
3.52, 145.429, 0.005986677, NaN, NaN, NaN, 0.03601294, "- N/A -   "
3.56, 146.727, 0.006044989, NaN, NaN, NaN, 0.04089605, "- N/A -   "
3.6, 148.142, 0.006103301, NaN, NaN, NaN, 0.0445584, "- N/A -   "
3.64, 149.557, 0.006164389, NaN, NaN, NaN, 0.04699994, "- N/A -   "
3.68, 151.091, 0.006231031, NaN, NaN, NaN, 0.04699994, "- N/A -   "
3.72, 152.978, 0.00630878, NaN, NaN, NaN, 0.04211683, "- N/A -   "
3.76, 154.865, 0.006386529, NaN, NaN, NaN, 0.0372337, "- N/A -   "
3.8, 156.5163, 0.006458725, NaN, NaN, NaN, 0.03601294, "- N/A -   "
3.84, 158.168, 0.00652814, NaN, NaN, NaN, 0.0347922, "- N/A -   "
3.88, 159.701, 0.006592009, NaN, NaN, NaN, 0.0347922, "- N/A -   "
3.92, 161.352, 0.006666981, NaN, NaN, NaN, 0.03112983, "- N/A -   "
3.96, 163.2393, 0.00674195, NaN, NaN, NaN, 0.0286883, "- N/A -   "
4, 164.891, 0.0068086, NaN, NaN, NaN, 0.0274675, "- N/A -   "
4.04, 166.306, 0.00687524, NaN, NaN, NaN, 0.0286883, "- N/A -   "
4.08, 167.839, 0.006936326, NaN, NaN, NaN, 0.0299091, "- N/A -   "
4.12, 169.255, 0.00699741, NaN, NaN, NaN, 0.0335714, "- N/A -   "
4.16, 170.4341, 0.00705017, NaN, NaN, NaN, 0.0384545, "- N/A -   "
4.2, 171.732, 0.007108485, NaN, NaN, NaN, 0.04211683, "- N/A -   "
4.24, 173.265, 0.00716957, NaN, NaN, NaN, 0.0445584, "- N/A -   "
4.28, 174.9161, 0.00723622, NaN, NaN, NaN, 0.0445584, "- N/A -   "
4.32, 176.449, 0.00730563, NaN, NaN, NaN, 0.0445584, "- N/A -   "
4.36, 177.983, 0.00737228, NaN, NaN, NaN, 0.0445584, "- N/A -   "
4.4, 179.752, 0.007436142, NaN, NaN, NaN, 0.0445584, "- N/A -   "
4.44, 181.403, 0.007508337, NaN, NaN, NaN, 0.04211683, "- N/A -   "
4.48, 183.408, 0.007586086, NaN, NaN, NaN, 0.0372337, "- N/A -   "
4.52, 185.295, 0.00767217, NaN, NaN, NaN, 0.0299091, "- N/A -   "
4.56, 186.947, 0.00773881, NaN, NaN, NaN, 0.0299091, "- N/A -   "
4.6, 188.48, 0.00780545, NaN, NaN, NaN, 0.0286883, "- N/A -   "
4.64, 190.013, 0.007866538, NaN, NaN, NaN, 0.03112983, "- N/A -   "
4.68, 191.311, 0.00792485, NaN, NaN, NaN, 0.0347922, "- N/A -   "
4.72, 192.844, 0.007985938, NaN, NaN, NaN, 0.0372337, "- N/A -   "
4.76, 194.259, 0.00804425, NaN, NaN, NaN, 0.04089605, "- N/A -   "
4.8, 195.911, 0.008113669, NaN, NaN, NaN, 0.0396753, "- N/A -   "
4.84, 197.68, 0.008185864, NaN, NaN, NaN, 0.0384545, "- N/A -   "
4.88, 199.095, 0.008246954, NaN, NaN, NaN, 0.0396753, "- N/A -   "
4.92, 200.629, 0.008308042, NaN, NaN, NaN, 0.04211683, "- N/A -   "
4.96, 202.044, 0.008371907, NaN, NaN, NaN, 0.0433376, "- N/A -   "
5, 203.577, 0.008438549, NaN, NaN, NaN, 0.0433376, "- N/A -   "
5.04, 205.347, 0.008507968, NaN, NaN, NaN, 0.04211683, "- N/A -   "
5.08, 207.116, 0.00858294, NaN, NaN, NaN, 0.0396753, "- N/A -   "
5.12, 209.121, 0.008660689, NaN, NaN, NaN, 0.0335714, "- N/A -   "
5.16, 210.89, 0.008735661, NaN, NaN, NaN, 0.0299091, "- N/A -   "
5.2, 212.541, 0.00880508, NaN, NaN, NaN, 0.0286883, "- N/A -   "
5.24, 213.839, 0.008863391, NaN, NaN, NaN, 0.0323506, "- N/A -   "
5.28, 215.372, 0.00892448, NaN, NaN, NaN, 0.0347922, "- N/A -   "
5.32, 217.023, 0.008991122, NaN, NaN, NaN, 0.0347922, "- N/A -   "
5.36, 218.557, 0.009057765, NaN, NaN, NaN, 0.0347922, "- N/A -   "
5.4, 220.326, 0.009127184, NaN, NaN, NaN, 0.0335714, "- N/A -   "
5.44, 221.977, 0.009196602, NaN, NaN, NaN, 0.0323506, "- N/A -   "
5.48, 223.3925, 0.009260467, NaN, NaN, NaN, 0.0335714, "- N/A -   "
5.52, 224.808, 0.009318779, NaN, NaN, NaN, 0.0372337, "- N/A -   "
5.56, 226.223, 0.009377091, NaN, NaN, NaN, 0.04089605, "- N/A -   "
5.6, 227.521, 0.009435403, NaN, NaN, NaN, 0.0445584, "- N/A -   "
5.64, 229.29, 0.009510376, NaN, NaN, NaN, 0.04089605, "- N/A -   "
5.68, 231.0591, 0.00957979, NaN, NaN, NaN, 0.0396753, "- N/A -   "
5.72, 232.71, 0.009646436, NaN, NaN, NaN, 0.0396753, "- N/A -   "
5.76, 234.244, 0.009715856, NaN, NaN, NaN, 0.0396753, "- N/A -   "
5.8, 236.0129, 0.009785274, NaN, NaN, NaN, 0.0384545, "- N/A -   "
5.84, 237.664, 0.009854692, NaN, NaN, NaN, 0.03601294, "- N/A -   "
5.88, 239.315, 0.009924111, NaN, NaN, NaN, 0.0347922, "- N/A -   "
5.92, 240.967, 0.009990754, NaN, NaN, NaN, 0.0347922, "- N/A -   "
5.96, 242.5, 0.0100602, NaN, NaN, NaN, 0.0347922, "- N/A -   "
5.99, 243.914, 0.01011293, NaN, NaN, NaN, 0.0323506, "- N/A -   "
6, 244.15, 0.0101296, NaN, NaN, NaN, 0.0323506, "- N/A -   "
6.01, 244.503, 0.0101463, NaN, NaN, NaN, 0.0323506, "- N/A -   "
6.03, 245.21, 0.0101768, NaN, NaN, NaN, 0.0347922, "- N/A -   "
6.05, 246.035, 0.0102073, NaN, NaN, NaN, 0.0347922, "- N/A -   "
6.07, 246.742, 0.0102407, NaN, NaN, NaN, 0.03601294, "- N/A -   "
6.09, 247.567, 0.0102712, NaN, NaN, NaN, 0.03601294, "- N/A -   "
6.11, 248.273, 0.0103045, NaN, NaN, NaN, 0.03601294, "- N/A -   "
6.13, 248.98, 0.0103378, NaN, NaN, NaN, 0.0372337, "- N/A -   "
6.15, 249.805, 0.0103684, NaN, NaN, NaN, 0.0372337, "- N/A -   "
6.17, 250.63, 0.0104017, NaN, NaN, NaN, 0.0372337, "- N/A -   "
6.19, 251.455, 0.0104406, NaN, NaN, NaN, 0.03601294, "- N/A -   "
6.21, 252.28, 0.0104767, NaN, NaN, NaN, 0.0335714, "- N/A -   "
6.23, 253.104, 0.01051, NaN, NaN, NaN, 0.0335714, "- N/A -   "
6.25, 253.811, 0.0105378, NaN, NaN, NaN, 0.03601294, "- N/A -   "
6.27, 254.4, 0.0105683, NaN, NaN, NaN, 0.0372337, "- N/A -   "
6.29, 255.225, 0.0105989, NaN, NaN, NaN, 0.0396753, "- N/A -   "
6.31, 255.932, 0.0106294, NaN, NaN, NaN, 0.0396753, "- N/A -   "
6.33, 256.639, 0.0106627, NaN, NaN, NaN, 0.0396753, "- N/A -   "
6.35, 257.4639, 0.0106988, NaN, NaN, NaN, 0.0396753, "- N/A -   "
6.37, 258.171, 0.01072937, NaN, NaN, NaN, 0.04089605, "- N/A -   "
6.39, 258.878, 0.0107571, NaN, NaN, NaN, 0.04211683, "- N/A -   "
6.41, 259.585, 0.0107877, NaN, NaN, NaN, 0.0433376, "- N/A -   "
6.43, 260.527, 0.010821, NaN, NaN, NaN, 0.0433376, "- N/A -   "
6.45, 261.352, 0.0108571, NaN, NaN, NaN, 0.04211683, "- N/A -   "
6.47, 262.177, 0.0108932, NaN, NaN, NaN, 0.04211683, "- N/A -   "
6.49, 263.002, 0.0109265, NaN, NaN, NaN, 0.04089605, "- N/A -   "
6.51, 263.944, 0.0109654, NaN, NaN, NaN, 0.0384545, "- N/A -   "
6.53, 265.0048, 0.011007, NaN, NaN, NaN, 0.0347922, "- N/A -   "
6.55, 265.83, 0.0110459, NaN, NaN, NaN, 0.0323506, "- N/A -   "
6.57, 266.654, 0.011082, NaN, NaN, NaN, 0.0323506, "- N/A -   "
6.59, 267.479, 0.01111256, NaN, NaN, NaN, 0.0323506, "- N/A -   "
6.61, 268.1861, 0.0111459, NaN, NaN, NaN, 0.0323506, "- N/A -   "
6.63, 268.893, 0.0111792, NaN, NaN, NaN, 0.0335714, "- N/A -   "
6.65, 269.7178, 0.0112125, NaN, NaN, NaN, 0.0323506, "- N/A -   "
6.67, 270.425, 0.0112458, NaN, NaN, NaN, 0.0323506, "- N/A -   "
6.69, 271.132, 0.0112764, NaN, NaN, NaN, 0.0335714, "- N/A -   "
6.71, 271.9565, 0.0113097, NaN, NaN, NaN, 0.0335714, "- N/A -   "
6.73, 272.7813, 0.0113458, NaN, NaN, NaN, 0.0335714, "- N/A -   "
6.75, 273.606, 0.0113847, NaN, NaN, NaN, 0.03112983, "- N/A -   "
6.77, 274.549, 0.0114236, NaN, NaN, NaN, 0.0286883, "- N/A -   "
6.79, 275.373, 0.0114569, NaN, NaN, NaN, 0.0274675, "- N/A -   "
6.81, 276.3161, 0.011493, NaN, NaN, NaN, 0.0262467, "- N/A -   "
6.83, 277.141, 0.01152352, NaN, NaN, NaN, 0.0274675, "- N/A -   "
6.85, 277.73, 0.0115541, NaN, NaN, NaN, 0.0286883, "- N/A -   "
6.87, 278.319, 0.0115846, NaN, NaN, NaN, 0.03112983, "- N/A -   "
6.89, 278.908, 0.0116124, NaN, NaN, NaN, 0.0323506, "- N/A -   "
6.91, 279.615, 0.0116401, NaN, NaN, NaN, 0.0347922, "- N/A -   "
6.93, 280.204, 0.0116679, NaN, NaN, NaN, 0.0372337, "- N/A -   "
6.95, 280.7935, 0.0116929, NaN, NaN, NaN, 0.04089605, "- N/A -   "
6.97, 281.2648, 0.0117179, NaN, NaN, NaN, 0.0445584, "- N/A -   "
6.99, 281.8539, 0.01174566, NaN, NaN, NaN, 0.04699994, "- N/A -   "
7.01, 282.561, 0.011779, NaN, NaN, NaN, 0.04699994, "- N/A -   "
7.03, 283.503, 0.0118123, NaN, NaN, NaN, 0.04699994, "- N/A -   "
7.05, 284.21, 0.0118456, NaN, NaN, NaN, 0.04699994, "- N/A -   "
7.07, 285.035, 0.0118789, NaN, NaN, NaN, 0.04699994, "- N/A -   "
7.09, 285.86, 0.011915, NaN, NaN, NaN, 0.04577916, "- N/A -   "
7.11, 286.567, 0.0119539, NaN, NaN, NaN, 0.0445584, "- N/A -   "
7.13, 287.6274, 0.0119956, NaN, NaN, NaN, 0.04089605, "- N/A -   "
7.15, 288.334, 0.0120317, NaN, NaN, NaN, 0.0396753, "- N/A -   "
7.17, 289.159, 0.012065, NaN, NaN, NaN, 0.0396753, "- N/A -   "
7.19, 289.984, 0.0120983, NaN, NaN, NaN, 0.0384545, "- N/A -   "
7.21, 290.8087, 0.0121344, NaN, NaN, NaN, 0.0372337, "- N/A -   "
7.23, 291.633, 0.01217328, NaN, NaN, NaN, 0.03601294, "- N/A -   "
7.25, 292.458, 0.0122066, NaN, NaN, NaN, 0.0347922, "- N/A -   "
7.27, 293.165, 0.0122427, NaN, NaN, NaN, 0.0335714, "- N/A -   "
7.29, 293.99, 0.012276, NaN, NaN, NaN, 0.0335714, "- N/A -   "
7.31, 294.8148, 0.0123149, NaN, NaN, NaN, 0.03112983, "- N/A -   "
7.33, 295.7574, 0.0123538, NaN, NaN, NaN, 0.0299091, "- N/A -   "
7.35, 296.582, 0.0123899, NaN, NaN, NaN, 0.0274675, "- N/A -   "
7.37, 297.289, 0.012426, NaN, NaN, NaN, 0.0274675, "- N/A -   "
7.39, 297.9961, 0.0124565, NaN, NaN, NaN, 0.0274675, "- N/A -   "
7.41, 298.703, 0.0124871, NaN, NaN, NaN, 0.0286883, "- N/A -   "
7.43, 299.41, 0.0125204, NaN, NaN, NaN, 0.0299091, "- N/A -   "
7.45, 300.117, 0.0125537, NaN, NaN, NaN, 0.0299091, "- N/A -   "
7.47, 300.8239, 0.01258424, NaN, NaN, NaN, 0.0299091, "- N/A -   "
7.49, 301.531, 0.01261756, NaN, NaN, NaN, 0.03112983, "- N/A -   "
7.51, 302.238, 0.0126481, NaN, NaN, NaN, 0.03112983, "- N/A -   "
7.53, 302.827, 0.0126786, NaN, NaN, NaN, 0.0335714, "- N/A -   "
[...]
19.86, 806.363, 0.0332322, NaN, NaN, NaN, 0.0323506, "- N/A -   "
20.05, 814.052, 0.03352095, NaN, NaN, NaN, 0.0433376, "- N/A -   "
20.24, 823.2775, 0.03385971, NaN, NaN, NaN, 0.0335714, "- N/A -   "
20.43, 832.267, 0.0341929, NaN, NaN, NaN, 0.0274675, "- N/A -   "
20.62, 839.719, 0.03447615, NaN, NaN, NaN, 0.04089605, "- N/A -   "
20.81, 848.708, 0.034801, NaN, NaN, NaN, 0.0372337, "- N/A -   "
21, 857.4607, 0.03513424, NaN, NaN, NaN, 0.03112983, "- N/A -   "
21.19, 865.9769, 0.0354452, NaN, NaN, NaN, 0.0335714, "- N/A -   "
21.38, 873.783, 0.0357368, NaN, NaN, NaN, 0.0433376, "- N/A -   "
21.57, 883.1276, 0.03607556, NaN, NaN, NaN, 0.0335714, "- N/A -   "
21.76, 891.5256, 0.0363921, NaN, NaN, NaN, 0.0347922, "- N/A -   "
21.95, 899.9235, 0.03670033, NaN, NaN, NaN, 0.0384545, "- N/A -   "
22.14, 908.676, 0.03701688, NaN, NaN, NaN, 0.0384545, "- N/A -   "
22.33, 917.3108, 0.037339, NaN, NaN, NaN, 0.03601294, "- N/A -   "
22.52, 926.3001, 0.0376611, NaN, NaN, NaN, 0.0335714, "- N/A -   "
22.71, 934.4615, 0.037961, NaN, NaN, NaN, 0.04089605, "- N/A -   "
22.9, 943.3326, 0.0382859, NaN, NaN, NaN, 0.0372337, "- N/A -   "
23.09, 951.9671, 0.03860796, NaN, NaN, NaN, 0.0347922, "- N/A -   "
23.28, 960.8382, 0.0389301, NaN, NaN, NaN, 0.0323506, "- N/A -   "
23.47, 968.526, 0.0392188, NaN, NaN, NaN, 0.0445584, "- N/A -   "
23.66, 977.8706, 0.03955761, NaN, NaN, NaN, 0.0347922, "- N/A -   "
23.85, 986.86, 0.03988249, NaN, NaN, NaN, 0.03112983, "- N/A -   "
24.04, 994.7848, 0.0401768, NaN, NaN, NaN, 0.04089605, "- N/A -   "
24.23, 1003.77, 0.0405017, NaN, NaN, NaN, 0.0384545, "- N/A -   "
24.42, 1013.36, 0.0408488, NaN, NaN, NaN, 0.0250259, "- N/A -   "
24.61, 1021.23, 0.0411348, NaN, NaN, NaN, 0.0372337, "- N/A -   "
24.8, 1028.86, 0.04142359, NaN, NaN, NaN, 0.05066227, "- N/A -   "
24.99, 1039.47, 0.04179567, NaN, NaN, NaN, 0.0262467, "- N/A -   "
25.18, 1048.06, 0.04209834, NaN, NaN, NaN, 0.03112983, "- N/A -   "
25.37, 1056.05, 0.04239267, NaN, NaN, NaN, 0.04089605, "- N/A -   "
25.56, 1065.11, 0.04272033, NaN, NaN, NaN, 0.0372337, "- N/A -   "
25.75, 1074.057, 0.0430424, NaN, NaN, NaN, 0.0335714, "- N/A -   "
25.94, 1083.12, 0.04336176, NaN, NaN, NaN, 0.0323506, "- N/A -   "
26.13, 1091.23, 0.04365887, NaN, NaN, NaN, 0.04089605, "- N/A -   "
26.32, 1100.53, 0.0439893, NaN, NaN, NaN, 0.03601294, "- N/A -   "
26.51, 1109.24, 0.04430863, NaN, NaN, NaN, 0.03601294, "- N/A -   "
26.7, 1118.18, 0.0446224, NaN, NaN, NaN, 0.03601294, "- N/A -   "
26.89, 1126.41, 0.0449195, NaN, NaN, NaN, 0.0445584, "- N/A -   "
27.08, 1136.31, 0.04526661, NaN, NaN, NaN, 0.0323506, "- N/A -   "
27.27, 1145.25, 0.04559149, NaN, NaN, NaN, 0.0286883, "- N/A -   "
27.46, 1153, 0.04587194, NaN, NaN, NaN, 0.0433376, "- N/A -   "
27.65, 1162.3, 0.0462024, NaN, NaN, NaN, 0.0372337, "- N/A -   "
27.84, 1171.49, 0.0465356, NaN, NaN, NaN, 0.03112983, "- N/A -   "
28.03, 1179.83, 0.0468327, NaN, NaN, NaN, 0.0384545, "- N/A -   "
28.22, 1188.18, 0.04713814, NaN, NaN, NaN, 0.0433376, "- N/A -   "
28.41, 1197.84, 0.0474852, NaN, NaN, NaN, 0.0299091, "- N/A -   "
28.6, 1206.43, 0.04779623, NaN, NaN, NaN, 0.0335714, "- N/A -   "
28.79, 1214.89, 0.04809612, NaN, NaN, NaN, 0.0396753, "- N/A -   "
28.98, 1223.84, 0.0484154, NaN, NaN, NaN, 0.0384545, "- N/A -   "
29.17, 1232.9, 0.0487348, NaN, NaN, NaN, 0.0372337, "- N/A -   "
29.36, 1242.2, 0.049068, NaN, NaN, NaN, 0.03112983, "- N/A -   "
29.55, 1250.43, 0.04936232, NaN, NaN, NaN, 0.0396753, "- N/A -   "
29.74, 1259.49, 0.0496872, NaN, NaN, NaN, 0.03601294, "- N/A -   "
29.93, 1269.27, 0.0500287, NaN, NaN, NaN, 0.0262467, "- N/A -   "
30.12, 1277.14, 0.0503175, NaN, NaN, NaN, 0.0372337, "- N/A -   "
30.31, 1285.133, 0.0506091, NaN, NaN, NaN, 0.0482207, "- N/A -   "
30.5, 1295.39, 0.05096451, NaN, NaN, NaN, 0.0323506, "- N/A -   "
30.69, 1304.33, 0.05128661, NaN, NaN, NaN, 0.0286883, "- N/A -   "
30.88, 1311.85, 0.0515671, NaN, NaN, NaN, 0.04699994, "- N/A -   "
31.07, 1321.5, 0.051903, NaN, NaN, NaN, 0.0372337, "- N/A -   "
31.26, 1331.04, 0.052239, NaN, NaN, NaN, 0.0286883, "- N/A -   "
31.45, 1339.27, 0.0525361, NaN, NaN, NaN, 0.0372337, "- N/A -   "
31.64, 1347.38, 0.0528333, NaN, NaN, NaN, 0.04577916, "- N/A -   "
31.83, 1357.4, 0.05318035, NaN, NaN, NaN, 0.0323506, "- N/A -   "
32.02, 1365.99, 0.0534886, NaN, NaN, NaN, 0.0372337, "- N/A -   "
32.21, 1374.572, 0.05379402, NaN, NaN, NaN, 0.04089605, "- N/A -   "
32.4, 1383.99, 0.0541272, NaN, NaN, NaN, 0.0347922, "- N/A -   "
32.59, 1392.7, 0.0544382, NaN, NaN, NaN, 0.03601294, "- N/A -   "
32.78, 1401.64, 0.0547603, NaN, NaN, NaN, 0.0347922, "- N/A -   "
32.97, 1409.99, 0.05506299, NaN, NaN, NaN, 0.04089605, "- N/A -   "
33.16, 1419.17, 0.0553823, NaN, NaN, NaN, 0.0384545, "- N/A -   "
33.35, 1428.35, 0.05571, NaN, NaN, NaN, 0.0335714, "- N/A -   "
33.54, 1437.18, 0.0560237, NaN, NaN, NaN, 0.0347922, "- N/A -   "
33.73, 1445.41, 0.0563209, NaN, NaN, NaN, 0.0433376, "- N/A -   "
33.92, 1455.19, 0.05666518, NaN, NaN, NaN, 0.03112983, "- N/A -   "
34.11, 1464.011, 0.0569845, NaN, NaN, NaN, 0.03112983, "- N/A -   "
34.3, 1471.88, 0.05727051, NaN, NaN, NaN, 0.0433376, "- N/A -   "
34.49, 1481.064, 0.0575982, NaN, NaN, NaN, 0.0384545, "- N/A -   "
34.68, 1490.48, 0.05793138, NaN, NaN, NaN, 0.03112983, "- N/A -   "
34.87, 1498.71, 0.058234, NaN, NaN, NaN, 0.0372337, "- N/A -   "
35.06, 1507.06, 0.0585395, NaN, NaN, NaN, 0.0433376, "- N/A -   "
35.25, 1517.2, 0.05889491, NaN, NaN, NaN, 0.0250259, "- N/A -   "
35.44, 1525.31, 0.05919202, NaN, NaN, NaN, 0.03601294, "- N/A -   "
35.63, 1533.53, 0.05949191, NaN, NaN, NaN, 0.04211683, "- N/A -   "
35.82, 1542.84, 0.0598223, NaN, NaN, NaN, 0.03601294, "- N/A -   "
36.01, 1551.54, 0.0601389, NaN, NaN, NaN, 0.03601294, "- N/A -   "
36.2, 1560.25, 0.0604527, NaN, NaN, NaN, 0.0372337, "- N/A -   "
36.39, 1568.83, 0.06076366, NaN, NaN, NaN, 0.0396753, "- N/A -   "
36.58, 1578.02, 0.0610941, NaN, NaN, NaN, 0.0335714, "- N/A -   "
36.77, 1586.96, 0.0614162, NaN, NaN, NaN, 0.03112983, "- N/A -   "
36.96, 1595.19, 0.0617189, NaN, NaN, NaN, 0.0384545, "- N/A -   "
37.15, 1603.42, 0.062016, NaN, NaN, NaN, 0.04699994, "- N/A -   "
37.34, 1613.08, 0.0623603, NaN, NaN, NaN, 0.0347922, "- N/A -   "
37.53, 1622.139, 0.06268795, NaN, NaN, NaN, 0.0299091, "- N/A -   "
37.72, 1629.77, 0.0629684, NaN, NaN, NaN, 0.0445584, "- N/A -   "
37.91, 1639.07, 0.0633072, NaN, NaN, NaN, 0.03601294, "- N/A -   "
38.1, 1648.49, 0.06364315, NaN, NaN, NaN, 0.0262467, "- N/A -   "
38.29, 1656.13, 0.0639264, NaN, NaN, NaN, 0.04211683, "- N/A -   "
38.48, 1664.59, 0.0642346, NaN, NaN, NaN, 0.0445584, "- N/A -   "
38.67, 1674.61, 0.06458725, NaN, NaN, NaN, 0.0286883, "- N/A -   "
38.86, 1682.96, 0.0648899, NaN, NaN, NaN, 0.0347922, "- N/A -   "
39.05, 1691.07, 0.0651898, NaN, NaN, NaN, 0.0433376, "- N/A -   "
39.24, 1700.37, 0.06552579, NaN, NaN, NaN, 0.0335714, "- N/A -   "
39.43, 1709.19, 0.0658423, NaN, NaN, NaN, 0.0335714, "- N/A -   "
39.62, 1717.78, 0.06615611, NaN, NaN, NaN, 0.0347922, "- N/A -   "
39.81, 1726.37, 0.0664671, NaN, NaN, NaN, 0.0384545, "- N/A -   "
40, 1735.07, 0.06678366, NaN, NaN, NaN, 0.0384545, "- N/A -   "
40.19, 1744.253, 0.06711409, NaN, NaN, NaN, 0.0323506, "- N/A -   "
40.38, 1752.48, 0.06741676, NaN, NaN, NaN, 0.0384545, "- N/A -   "
40.57, 1760.95, 0.06772498, NaN, NaN, NaN, 0.0433376, "- N/A -   "
40.76, 1770.37, 0.06806374, NaN, NaN, NaN, 0.0323506, "- N/A -   "
40.95, 1778.96, 0.06838585, NaN, NaN, NaN, 0.0299091, "- N/A -   "
41.14, 1786.47, 0.0686663, NaN, NaN, NaN, 0.04577916, "- N/A -   "
41.33, 1795.89, 0.0690051, NaN, NaN, NaN, 0.0372337, "- N/A -   "
41.52, 1804.71, 0.06933272, NaN, NaN, NaN, 0.03112983, "- N/A -   "
41.71, 1812.94, 0.0696354, NaN, NaN, NaN, 0.0372337, "- N/A -   "
41.9, 1821.17, 0.06994361, NaN, NaN, NaN, 0.04211683, "- N/A -   "
42.09, 1830.59, 0.07028792, NaN, NaN, NaN, 0.0286883, "- N/A -   "
42.28, 1838.82, 0.07059059, NaN, NaN, NaN, 0.03601294, "- N/A -   "
42.47, 1846.81, 0.0708877, NaN, NaN, NaN, 0.0445584, "- N/A -   "
42.66, 1855.99, 0.07122369, NaN, NaN, NaN, 0.03601294, "- N/A -   "
42.85, 1864.34, 0.07153191, NaN, NaN, NaN, 0.0384545, "- N/A -   "
43.04, 1873.28, 0.07186234, NaN, NaN, NaN, 0.0335714, "- N/A -   "
43.23, 1881.39, 0.0721622, NaN, NaN, NaN, 0.04089605, "- N/A -   "
43.42, 1890.34, 0.07249267, NaN, NaN, NaN, 0.0335714, "- N/A -   "
43.61, 1899.04, 0.07280921, NaN, NaN, NaN, 0.0335714, "- N/A -   "
43.8, 1907.032, 0.0731147, NaN, NaN, NaN, 0.0396753, "- N/A -   "
43.99, 1915.38, 0.07342287, NaN, NaN, NaN, 0.0433376, "- N/A -   "
44.18, 1924.562, 0.07375886, NaN, NaN, NaN, 0.0335714, "- N/A -   "
44.363, 1933.03, 0.07407541, NaN, NaN, NaN, 0.0299091, "- N/A -   "