File: 2_Tensile_Data/Hamel_ForceTest_Bolt8_Test5.csv
Time, Load (lb), Position (in), AxialStrain (in), TransverseStrain (in), Auxiliary (), Control Out (V), Stress (psi)
0.0, 1.53332, 0.0, NaN, NaN, NaN, 0.101935, "- N/A -   "
0.01, 2.005107, 3.054427E-5, NaN, NaN, NaN, 0.1092596, "- N/A -   "
0.02, 2.83074, 5.83118e-05, NaN, NaN, NaN, 0.112922, "- N/A -   "
0.03, 3.53842, 8.885606E-5, NaN, NaN, NaN, 0.106818, "- N/A -   "
0.04, 4.010214, 0.0001194, NaN, NaN, NaN, 0.100714, "- N/A -   "
0.05, 4.717899, 1.499446E-4, NaN, NaN, NaN, 0.095831, "- N/A -   "
0.06, 5.425584, 0.000180489, NaN, NaN, NaN, 0.0897272, "- N/A -   "
0.07, 6.13327, 0.000211033, NaN, NaN, NaN, 0.08362327, "- N/A -   "
0.08, 6.84095, 2.415774E-4, NaN, NaN, NaN, 0.07751938, "- N/A -   "
0.09, 7.430691, 0.000269345, NaN, NaN, NaN, 0.07141549, "- N/A -   "
0.1, 8.020428, 0.000294336, NaN, NaN, NaN, 0.06775316, "- N/A -   "
0.11, 8.610166, 3.221032E-4, NaN, NaN, NaN, 0.06287005, "- N/A -   "
0.12, 9.081955, 0.000347094, NaN, NaN, NaN, 0.0592077, "- N/A -   "
0.13, 9.671693, 0.000372085, NaN, NaN, NaN, 0.05676616, "- N/A -   "
0.14, 10.0255, 0.000394299, NaN, NaN, NaN, 0.0531038, "- N/A -   "
0.15, 10.6153, 4.192895E-4, NaN, NaN, NaN, 0.05066227, "- N/A -   "
0.16, 10.9691, 4.387268E-4, NaN, NaN, NaN, 0.0482207, "- N/A -   "
0.17, 11.4409, 4.609408E-4, NaN, NaN, NaN, 0.04699994, "- N/A -   "
0.18, 11.7947, 0.000480378, NaN, NaN, NaN, 0.0445584, "- N/A -   "
0.19, 12.2665, 0.000502592, NaN, NaN, NaN, 0.04211683, "- N/A -   "
0.2, 12.7383, 0.000522029, NaN, NaN, NaN, 0.04211683, "- N/A -   "
0.21, 13.09217, 5.414666E-4, NaN, NaN, NaN, 0.0396753, "- N/A -   "
0.22, 13.564, 0.000560904, NaN, NaN, NaN, 0.0396753, "- N/A -   "
0.23, 13.7999, 0.000580341, NaN, NaN, NaN, 0.0384545, "- N/A -   "
0.24, 14.2716, 0.000597002, NaN, NaN, NaN, 0.0372337, "- N/A -   "
0.25, 14.5075, 6.164389E-4, NaN, NaN, NaN, 0.03601294, "- N/A -   "
0.26, 15.2152, 0.000635876, NaN, NaN, NaN, 0.0347922, "- N/A -   "
0.27, 15.4511, 0.000655313, NaN, NaN, NaN, 0.0335714, "- N/A -   "
0.28, 15.805, 6.747507E-4, NaN, NaN, NaN, 0.0323506, "- N/A -   "
0.29, 16.1588, 0.000694188, NaN, NaN, NaN, 0.0323506, "- N/A -   "
0.3, 16.6306, 7.080717E-4, NaN, NaN, NaN, 0.0323506, "- N/A -   "
0.31, 16.86649, 7.27509E-4, NaN, NaN, NaN, 0.0323506, "- N/A -   "
0.39, 19.3434, 0.000849686, NaN, NaN, NaN, 0.0372337, "- N/A -   "
0.47, 21.5844, 0.000960756, NaN, NaN, NaN, 0.04577916, "- N/A -   "
0.55, 24.29718, 0.00109126, NaN, NaN, NaN, 0.04699994, "- N/A -   "
0.63, 27.3638, 0.001241208, NaN, NaN, NaN, 0.0396753, "- N/A -   "
0.71, 30.3125, 0.00138282, NaN, NaN, NaN, 0.0372337, "- N/A -   "
0.79, 33.02529, 0.00152166, NaN, NaN, NaN, 0.0335714, "- N/A -   "
0.87, 36.0919, 0.00166883, NaN, NaN, NaN, 0.0274675, "- N/A -   "
0.95, 38.68677, 0.00179656, NaN, NaN, NaN, 0.03112983, "- N/A -   "
1.03, 41.16367, 0.00191596, NaN, NaN, NaN, 0.03601294, "- N/A -   "
1.11, 43.5226, 0.00203536, NaN, NaN, NaN, 0.0433376, "- N/A -   "
1.19, 46.3534, 0.00216309, NaN, NaN, NaN, 0.0445584, "- N/A -   "
1.27, 49.0661, 0.002293597, NaN, NaN, NaN, 0.04699994, "- N/A -   "
1.35, 52.1328, 0.002440765, NaN, NaN, NaN, 0.0396753, "- N/A -   "
1.43, 55.43531, 0.002596263, NaN, NaN, NaN, 0.03112983, "- N/A -   "
1.51, 58.384, 0.00272955, NaN, NaN, NaN, 0.0299091, "- N/A -   "
1.59, 60.97884, 0.002854501, NaN, NaN, NaN, 0.0335714, "- N/A -   "
1.67, 63.6916, 0.00297945, NaN, NaN, NaN, 0.0384545, "- N/A -   "
1.75, 66.64032, 0.00311829, NaN, NaN, NaN, 0.0347922, "- N/A -   "
1.83, 69.11722, 0.003234916, NaN, NaN, NaN, 0.04211683, "- N/A -   "
1.91, 71.94796, 0.00336265, NaN, NaN, NaN, 0.0445584, "- N/A -   "
1.99, 75.36844, 0.00351537, NaN, NaN, NaN, 0.0372337, "- N/A -   "
2.07, 78.55301, 0.00366254, NaN, NaN, NaN, 0.03112983, "- N/A -   "
2.15, 81.26581, 0.00379027, NaN, NaN, NaN, 0.0323506, "- N/A -   "
2.23, 83.9786, 0.00391522, NaN, NaN, NaN, 0.03601294, "- N/A -   "
2.31, 87.04523, 0.00405683, NaN, NaN, NaN, 0.0323506, "- N/A -   "
2.39, 89.99392, 0.004187342, NaN, NaN, NaN, 0.0335714, "- N/A -   "
2.47, 92.35287, 0.004306742, NaN, NaN, NaN, 0.04089605, "- N/A -   "
2.55, 95.18361, 0.00443725, NaN, NaN, NaN, 0.04089605, "- N/A -   "
2.63, 98.01435, 0.00457053, NaN, NaN, NaN, 0.04211683, "- N/A -   "
2.71, 101.081, 0.004712148, NaN, NaN, NaN, 0.0372337, "- N/A -   "
2.79, 103.912, 0.00485099, NaN, NaN, NaN, 0.0347922, "- N/A -   "
2.87, 106.742, 0.0049926, NaN, NaN, NaN, 0.0323506, "- N/A -   "
2.95, 109.5732, 0.005128661, NaN, NaN, NaN, 0.0299091, "- N/A -   "
3.03, 111.932, 0.00525084, NaN, NaN, NaN, 0.0347922, "- N/A -   "
3.11, 114.527, 0.005386899, NaN, NaN, NaN, 0.0335714, "- N/A -   "
3.19, 116.768, 0.00550908, NaN, NaN, NaN, 0.0384545, "- N/A -   "
3.27, 119.009, 0.00563403, NaN, NaN, NaN, 0.04211683, "- N/A -   "
3.35, 121.486, 0.00576731, NaN, NaN, NaN, 0.04211683, "- N/A -   "
3.43, 124.199, 0.00592004, NaN, NaN, NaN, 0.0335714, "- N/A -   "
3.51, 126.676, 0.006056096, NaN, NaN, NaN, 0.0323506, "- N/A -   "
3.59, 128.917, 0.0061866, NaN, NaN, NaN, 0.03601294, "- N/A -   "
3.67, 131.629, 0.006330994, NaN, NaN, NaN, 0.0299091, "- N/A -   "
3.75, 133.988, 0.00645872, NaN, NaN, NaN, 0.0323506, "- N/A -   "
3.83, 135.993, 0.00657813, NaN, NaN, NaN, 0.0396753, "- N/A -   "
3.91, 138.116, 0.00669475, NaN, NaN, NaN, 0.04577916, "- N/A -   "
3.99, 140.593, 0.00682803, NaN, NaN, NaN, 0.04577916, "- N/A -   "
4.07, 143.188, 0.00698075, NaN, NaN, NaN, 0.0384545, "- N/A -   "
4.15, 145.901, 0.00712237, NaN, NaN, NaN, 0.0347922, "- N/A -   "
4.23, 148.496, 0.00726398, NaN, NaN, NaN, 0.0299091, "- N/A -   "
4.31, 150.973, 0.00740004, NaN, NaN, NaN, 0.0286883, "- N/A -   "
4.39, 153.096, 0.007524997, NaN, NaN, NaN, 0.0323506, "- N/A -   "
4.47, 155.219, 0.007641621, NaN, NaN, NaN, 0.0396753, "- N/A -   "
4.55, 157.342, 0.007761021, NaN, NaN, NaN, 0.04577916, "- N/A -   "
4.63, 160.055, 0.007902635, NaN, NaN, NaN, 0.0433376, "- N/A -   "
4.71, 162.532, 0.00803592, NaN, NaN, NaN, 0.04211683, "- N/A -   "
4.79, 165.598, 0.008194195, NaN, NaN, NaN, 0.0323506, "- N/A -   "
4.87, 168.193, 0.008333033, NaN, NaN, NaN, 0.0286883, "- N/A -   "
4.95, 170.552, 0.008463539, NaN, NaN, NaN, 0.03112983, "- N/A -   "
5.03, 172.793, 0.008588494, NaN, NaN, NaN, 0.0335714, "- N/A -   "
5.11, 175.152, 0.008716224, NaN, NaN, NaN, 0.0372337, "- N/A -   "
5.19, 177.629, 0.008843956, NaN, NaN, NaN, 0.0384545, "- N/A -   "
5.27, 179.87, 0.008966132, NaN, NaN, NaN, 0.0433376, "- N/A -   "
5.35, 182.465, 0.009096639, NaN, NaN, NaN, 0.0445584, "- N/A -   "
5.43, 185.531, 0.00925214, NaN, NaN, NaN, 0.0347922, "- N/A -   "
5.51, 188.008, 0.009393752, NaN, NaN, NaN, 0.03112983, "- N/A -   "
5.59, 190.603, 0.009524259, NaN, NaN, NaN, 0.0323506, "- N/A -   "
5.67, 192.844, 0.009646436, NaN, NaN, NaN, 0.0372337, "- N/A -   "
5.75, 195.675, 0.00979083, NaN, NaN, NaN, 0.0323506, "- N/A -   "
5.83, 198.034, 0.009913004, NaN, NaN, NaN, 0.0372337, "- N/A -   "
5.91, 200.275, 0.0100324, NaN, NaN, NaN, 0.0433376, "- N/A -   "
5.99, 202.9876, 0.0101712, NaN, NaN, NaN, 0.04089605, "- N/A -   "
6.07, 205.818, 0.0103129, NaN, NaN, NaN, 0.0384545, "- N/A -   "
6.15, 208.531, 0.0104489, NaN, NaN, NaN, 0.03601294, "- N/A -   "
6.23, 211.244, 0.0105878, NaN, NaN, NaN, 0.0335714, "- N/A -   "
6.31, 213.839, 0.0107266, NaN, NaN, NaN, 0.03112983, "- N/A -   "
6.39, 216.316, 0.0108571, NaN, NaN, NaN, 0.0335714, "- N/A -   "
6.47, 219.028, 0.0109876, NaN, NaN, NaN, 0.0335714, "- N/A -   "
6.55, 221.623, 0.0111181, NaN, NaN, NaN, 0.0347922, "- N/A -   "
6.63, 223.8643, 0.0112403, NaN, NaN, NaN, 0.0396753, "- N/A -   "
6.71, 226.3412, 0.0113625, NaN, NaN, NaN, 0.0445584, "- N/A -   "
6.79, 229.408, 0.0115041, NaN, NaN, NaN, 0.04089605, "- N/A -   "
6.87, 232.474, 0.011654, NaN, NaN, NaN, 0.0335714, "- N/A -   "
6.95, 235.187, 0.0117901, NaN, NaN, NaN, 0.0335714, "- N/A -   "
7.03, 237.9, 0.0119234, NaN, NaN, NaN, 0.0323506, "- N/A -   "
7.11, 240.967, 0.0120733, NaN, NaN, NaN, 0.0250259, "- N/A -   "
7.19, 243.207, 0.0121872, NaN, NaN, NaN, 0.0347922, "- N/A -   "
7.27, 245.328, 0.0122982, NaN, NaN, NaN, 0.0433376, "- N/A -   "
7.35, 247.92, 0.012426, NaN, NaN, NaN, 0.04577916, "- N/A -   "
7.43, 250.866, 0.01256758, NaN, NaN, NaN, 0.04211683, "- N/A -   "
7.51, 253.929, 0.0127147, NaN, NaN, NaN, 0.03601294, "- N/A -   "
7.59, 256.757, 0.0128536, NaN, NaN, NaN, 0.0335714, "- N/A -   "
7.67, 259.82, 0.012998, NaN, NaN, NaN, 0.0286883, "- N/A -   "
7.75, 262.53, 0.01313126, NaN, NaN, NaN, 0.0299091, "- N/A -   "
7.83, 265.0048, 0.0132534, NaN, NaN, NaN, 0.0347922, "- N/A -   "
7.91, 267.479, 0.0133728, NaN, NaN, NaN, 0.0396753, "- N/A -   "
7.99, 270.189, 0.0135033, NaN, NaN, NaN, 0.04089605, "- N/A -   "
8.07, 273.017, 0.0136339, NaN, NaN, NaN, 0.0445584, "- N/A -   "
8.15, 275.963, 0.01377269, NaN, NaN, NaN, 0.04089605, "- N/A -   "
8.23, 279.262, 0.0139282, NaN, NaN, NaN, 0.03112983, "- N/A -   "
8.31, 281.972, 0.0140615, NaN, NaN, NaN, 0.03112983, "- N/A -   "
8.39, 284.8, 0.0141948, NaN, NaN, NaN, 0.0323506, "- N/A -   "
8.47, 287.51, 0.0143197, NaN, NaN, NaN, 0.03601294, "- N/A -   "
8.55, 290.22, 0.01444744, NaN, NaN, NaN, 0.0384545, "- N/A -   "
8.63, 292.6939, 0.0145641, NaN, NaN, NaN, 0.0445584, "- N/A -   "
8.71, 295.6396, 0.0147001, NaN, NaN, NaN, 0.0433376, "- N/A -   "
8.79, 298.821, 0.0148417, NaN, NaN, NaN, 0.0396753, "- N/A -   "
8.87, 302.0022, 0.0149917, NaN, NaN, NaN, 0.0335714, "- N/A -   "
8.95, 304.948, 0.0151277, NaN, NaN, NaN, 0.0323506, "- N/A -   "
9.03, 307.658, 0.0152555, NaN, NaN, NaN, 0.0347922, "- N/A -   "
9.11, 310.7213, 0.0153915, NaN, NaN, NaN, 0.0323506, "- N/A -   "
9.19, 313.549, 0.015522, NaN, NaN, NaN, 0.0335714, "- N/A -   "
9.27, 316.0235, 0.0156414, NaN, NaN, NaN, 0.0396753, "- N/A -   "
9.35, 318.969, 0.0157692, NaN, NaN, NaN, 0.04211683, "- N/A -   "
9.43, 322.033, 0.015908, NaN, NaN, NaN, 0.0396753, "- N/A -   "
9.51, 325.0961, 0.01604685, NaN, NaN, NaN, 0.0372337, "- N/A -   "
9.59, 328.042, 0.0161801, NaN, NaN, NaN, 0.0372337, "- N/A -   "
9.67, 330.987, 0.0163134, NaN, NaN, NaN, 0.0372337, "- N/A -   "
9.75, 334.1687, 0.016455, NaN, NaN, NaN, 0.0335714, "- N/A -   "
9.83, 336.997, 0.0165883, NaN, NaN, NaN, 0.0347922, "- N/A -   "
9.91, 340.296, 0.01672993, NaN, NaN, NaN, 0.03112983, "- N/A -   "
9.99, 342.888, 0.0168466, NaN, NaN, NaN, 0.0372337, "- N/A -   "
10.07, 345.5978, 0.0169715, NaN, NaN, NaN, 0.04089605, "- N/A -   "
10.15, 348.6613, 0.017102, NaN, NaN, NaN, 0.0433376, "- N/A -   "
10.23, 351.7248, 0.0172381, NaN, NaN, NaN, 0.04089605, "- N/A -   "
10.31, 354.788, 0.0173825, NaN, NaN, NaN, 0.03601294, "- N/A -   "
10.39, 358.0874, 0.01752686, NaN, NaN, NaN, 0.0323506, "- N/A -   "
10.47, 361.151, 0.0176629, NaN, NaN, NaN, 0.03112983, "- N/A -   "
10.55, 364.332, 0.017799, NaN, NaN, NaN, 0.0286883, "- N/A -   "
10.63, 366.924, 0.0179212, NaN, NaN, NaN, 0.0335714, "- N/A -   "
10.71, 369.3987, 0.01802945, NaN, NaN, NaN, 0.0445584, "- N/A -   "
10.79, 372.4622, 0.0181655, NaN, NaN, NaN, 0.0433376, "- N/A -   "
10.87, 375.761, 0.0183071, NaN, NaN, NaN, 0.0396753, "- N/A -   "
10.95, 379.06, 0.01844874, NaN, NaN, NaN, 0.03601294, "- N/A -   "
11.03, 382.124, 0.0185848, NaN, NaN, NaN, 0.0347922, "- N/A -   "
11.11, 385.3052, 0.0187264, NaN, NaN, NaN, 0.03112983, "- N/A -   "
11.19, 388.604, 0.01886803, NaN, NaN, NaN, 0.0274675, "- N/A -   "
11.27, 391.197, 0.01898743, NaN, NaN, NaN, 0.0347922, "- N/A -   "
11.35, 393.7887, 0.0191013, NaN, NaN, NaN, 0.04211683, "- N/A -   "
11.43, 396.734, 0.0192318, NaN, NaN, NaN, 0.0433376, "- N/A -   "
11.51, 399.798, 0.0193651, NaN, NaN, NaN, 0.0445584, "- N/A -   "
11.59, 403.097, 0.01950668, NaN, NaN, NaN, 0.0396753, "- N/A -   "
11.62, 404.6287, 0.01956777, NaN, NaN, NaN, 0.0347922, "- N/A -   "
11.63, 405.1, 0.01959, NaN, NaN, NaN, 0.0335714, "- N/A -   "
11.64, 405.571, 0.0196094, NaN, NaN, NaN, 0.03112983, "- N/A -   "
11.81, 412.1696, 0.0198954, NaN, NaN, NaN, 0.0299091, "- N/A -   "
11.98, 418.1787, 0.020162, NaN, NaN, NaN, 0.0372337, "- N/A -   "
12.15, 424.541, 0.0204369, NaN, NaN, NaN, 0.04211683, "- N/A -   "
12.32, 431.8465, 0.02073956, NaN, NaN, NaN, 0.0323506, "- N/A -   "
12.49, 438.0913, 0.02101168, NaN, NaN, NaN, 0.0372337, "- N/A -   "
12.66, 445.043, 0.021306, NaN, NaN, NaN, 0.0335714, "- N/A -   "
12.83, 451.406, 0.0215726, NaN, NaN, NaN, 0.04089605, "- N/A -   "
13, 458.475, 0.02186692, NaN, NaN, NaN, 0.0372337, "- N/A -   "
13.17, 464.838, 0.0221446, NaN, NaN, NaN, 0.0396753, "- N/A -   "
13.34, 471.9074, 0.0224362, NaN, NaN, NaN, 0.0347922, "- N/A -   "
13.51, 478.27, 0.0227083, NaN, NaN, NaN, 0.0396753, "- N/A -   "
13.68, 485.5752, 0.0230054, NaN, NaN, NaN, 0.0335714, "- N/A -   "
13.85, 492.291, 0.02328584, NaN, NaN, NaN, 0.0347922, "- N/A -   "
14.02, 499.243, 0.0235746, NaN, NaN, NaN, 0.0323506, "- N/A -   "
14.19, 505.017, 0.0238218, NaN, NaN, NaN, 0.0482207, "- N/A -   "
14.36, 512.793, 0.0241355, NaN, NaN, NaN, 0.03601294, "- N/A -   "
14.53, 520.1237, 0.0244382, NaN, NaN, NaN, 0.0262467, "- N/A -   "
14.7, 526.5109, 0.0246992, NaN, NaN, NaN, 0.03601294, "- N/A -   "
14.87, 533.016, 0.0249658, NaN, NaN, NaN, 0.0433376, "- N/A -   "
15.04, 540.7046, 0.025274, NaN, NaN, NaN, 0.0323506, "- N/A -   "
15.21, 547.5649, 0.0255544, NaN, NaN, NaN, 0.0335714, "- N/A -   "
15.38, 554.543, 0.0258321, NaN, NaN, NaN, 0.03601294, "- N/A -   "
15.55, 561.0489, 0.0260931, NaN, NaN, NaN, 0.04577916, "- N/A -   "
15.72, 569.329, 0.0264208, NaN, NaN, NaN, 0.0262467, "- N/A -   "
15.89, 575.834, 0.0266846, NaN, NaN, NaN, 0.03601294, "- N/A -   "
16.06, 582.8126, 0.026965, NaN, NaN, NaN, 0.03601294, "- N/A -   "
16.23, 589.673, 0.0272399, NaN, NaN, NaN, 0.0396753, "- N/A -   "
16.4, 597.0063, 0.0275315, NaN, NaN, NaN, 0.03601294, "- N/A -   "
16.57, 604.458, 0.0278231, NaN, NaN, NaN, 0.0323506, "- N/A -   "
16.74, 611.318, 0.0281035, NaN, NaN, NaN, 0.0335714, "- N/A -   "
16.91, 617.942, 0.0283673, NaN, NaN, NaN, 0.04211683, "- N/A -   "
17.08, 625.749, 0.0286727, NaN, NaN, NaN, 0.0323506, "- N/A -   "
17.25, 633.082, 0.0289643, NaN, NaN, NaN, 0.03112983, "- N/A -   "
17.42, 640.2971, 0.029242, NaN, NaN, NaN, 0.0323506, "- N/A -   "
17.59, 646.4477, 0.0294891, NaN, NaN, NaN, 0.0482207, "- N/A -   "
17.76, 654.3725, 0.0298029, NaN, NaN, NaN, 0.0347922, "- N/A -   "
17.93, 661.824, 0.0300917, NaN, NaN, NaN, 0.0323506, "- N/A -   "
18.1, 668.8028, 0.0303666, NaN, NaN, NaN, 0.03601294, "- N/A -   "
18.27, 675.7813, 0.03063868, NaN, NaN, NaN, 0.04089605, "- N/A -   "
18.44, 683.351, 0.030933, NaN, NaN, NaN, 0.03601294, "- N/A -   "
18.61, 690.803, 0.0312274, NaN, NaN, NaN, 0.03112983, "- N/A -   "
18.78, 698.2547, 0.03151058, NaN, NaN, NaN, 0.03112983, "- N/A -   "
18.95, 704.642, 0.0317605, NaN, NaN, NaN, 0.04577916, "- N/A -   "
19.12, 712.921, 0.0320743, NaN, NaN, NaN, 0.0323506, "- N/A -   "
19.29, 719.9001, 0.0323436, NaN, NaN, NaN, 0.0384545, "- N/A -   "
19.46, 727.352, 0.0326352, NaN, NaN, NaN, 0.03601294, "- N/A -   "
19.63, 734.5669, 0.03291284, NaN, NaN, NaN, 0.0372337, "- N/A -   "
19.8, 741.9003, 0.03319607, NaN, NaN, NaN, 0.0372337, "- N/A -   "
19.97, 749.4703, 0.0334904, NaN, NaN, NaN, 0.0335714, "- N/A -   "
20.14, 756.922, 0.03377641, NaN, NaN, NaN, 0.0323506, "- N/A -   "
20.31, 763.4274, 0.0340346, NaN, NaN, NaN, 0.04211683, "- N/A -   "
20.48, 771.234, 0.0343262, NaN, NaN, NaN, 0.0384545, "- N/A -   "
20.65, 779.0405, 0.0346205, NaN, NaN, NaN, 0.0347922, "- N/A -   "
20.82, 786.2557, 0.0349038, NaN, NaN, NaN, 0.0335714, "- N/A -   "
20.99, 792.9976, 0.03516201, NaN, NaN, NaN, 0.0445584, "- N/A -   "
21.16, 801.0407, 0.0354647, NaN, NaN, NaN, 0.03601294, "- N/A -   "
21.33, 808.729, 0.0357618, NaN, NaN, NaN, 0.0299091, "- N/A -   "
21.5, 815.9441, 0.0360367, NaN, NaN, NaN, 0.0335714, "- N/A -   "
21.67, 822.804, 0.0363005, NaN, NaN, NaN, 0.0445584, "- N/A -   "
21.84, 830.611, 0.03659481, NaN, NaN, NaN, 0.0396753, "- N/A -   "
22.01, 838.4175, 0.0368947, NaN, NaN, NaN, 0.0323506, "- N/A -   "
22.18, 845.5143, 0.0371585, NaN, NaN, NaN, 0.0396753, "- N/A -   "
22.35, 852.4929, 0.03743339, NaN, NaN, NaN, 0.0445584, "- N/A -   "
22.52, 860.8908, 0.0377444, NaN, NaN, NaN, 0.0323506, "- N/A -   "
22.69, 867.9877, 0.03801651, NaN, NaN, NaN, 0.03601294, "- N/A -   "
22.86, 875.5577, 0.03829974, NaN, NaN, NaN, 0.03601294, "- N/A -   "
23.03, 882.655, 0.03857186, NaN, NaN, NaN, 0.04089605, "- N/A -   "
23.2, 890.461, 0.0388662, NaN, NaN, NaN, 0.0372337, "- N/A -   "
23.37, 898.031, 0.03915498, NaN, NaN, NaN, 0.0347922, "- N/A -   "
23.54, 905.128, 0.03942988, NaN, NaN, NaN, 0.0372337, "- N/A -   "
23.71, 912.4613, 0.0397076, NaN, NaN, NaN, 0.0396753, "- N/A -   "
23.88, 920.3861, 0.0399991, NaN, NaN, NaN, 0.03601294, "- N/A -   "
24.05, 927.956, 0.04029067, NaN, NaN, NaN, 0.0323506, "- N/A -   "
24.22, 935.763, 0.0405795, NaN, NaN, NaN, 0.0299091, "- N/A -   "
24.39, 942.1498, 0.04082936, NaN, NaN, NaN, 0.0445584, "- N/A -   "
24.56, 950.0746, 0.04112647, NaN, NaN, NaN, 0.0384545, "- N/A -   "
24.73, 958.1177, 0.0414319, NaN, NaN, NaN, 0.0286883, "- N/A -   "
24.9, 964.978, 0.0416985, NaN, NaN, NaN, 0.03601294, "- N/A -   "
25.07, 972.1931, 0.0419678, NaN, NaN, NaN, 0.04211683, "- N/A -   "
25.24, 980.2362, 0.04227327, NaN, NaN, NaN, 0.0335714, "- N/A -   "
25.41, 987.924, 0.0425704, NaN, NaN, NaN, 0.0274675, "- N/A -   "
25.58, 995.021, 0.042837, NaN, NaN, NaN, 0.0335714, "- N/A -   "
25.75, 1001.645, 0.04308964, NaN, NaN, NaN, 0.04699994, "- N/A -   "
25.92, 1010.28, 0.0434062, NaN, NaN, NaN, 0.0323506, "- N/A -   "
26.09, 1017.41, 0.04368109, NaN, NaN, NaN, 0.03601294, "- N/A -   "
26.26, 1025.283, 0.0439726, NaN, NaN, NaN, 0.0335714, "- N/A -   "
26.43, 1032.2, 0.04423921, NaN, NaN, NaN, 0.04089605, "- N/A -   "
26.6, 1040.19, 0.04453077, NaN, NaN, NaN, 0.0372337, "- N/A -   "
26.77, 1048.18, 0.0448279, NaN, NaN, NaN, 0.03112983, "- N/A -   "
26.94, 1055.573, 0.0451056, NaN, NaN, NaN, 0.0335714, "- N/A -   "
27.11, 1062.61, 0.0453721, NaN, NaN, NaN, 0.04089605, "- N/A -   "
27.28, 1070.48, 0.04565813, NaN, NaN, NaN, 0.0396753, "- N/A -   "
27.45, 1078.35, 0.04594969, NaN, NaN, NaN, 0.03601294, "- N/A -   "
27.62, 1086.22, 0.046244, NaN, NaN, NaN, 0.03112983, "- N/A -   "
27.79, 1092.78, 0.0464939, NaN, NaN, NaN, 0.04577916, "- N/A -   "
27.96, 1101.01, 0.0467966, NaN, NaN, NaN, 0.0372337, "- N/A -   "
28.13, 1109.12, 0.0470993, NaN, NaN, NaN, 0.0286883, "- N/A -   "
28.3, 1116.39, 0.0473714, NaN, NaN, NaN, 0.0335714, "- N/A -   "
28.47, 1123.19, 0.0476296, NaN, NaN, NaN, 0.0445584, "- N/A -   "
28.64, 1131.298, 0.04792674, NaN, NaN, NaN, 0.0396753, "- N/A -   "
28.81, 1139.41, 0.04822663, NaN, NaN, NaN, 0.03112983, "- N/A -   "
28.98, 1146.56, 0.048496, NaN, NaN, NaN, 0.0372337, "- N/A -   "
29.15, 1153.72, 0.0487653, NaN, NaN, NaN, 0.0433376, "- N/A -   "
29.32, 1162.3, 0.0490763, NaN, NaN, NaN, 0.03112983, "- N/A -   "
29.49, 1169.46, 0.0493484, NaN, NaN, NaN, 0.03601294, "- N/A -   "
29.66, 1177.33, 0.04964, NaN, NaN, NaN, 0.0323506, "- N/A -   "
29.83, 1184.365, 0.0499038, NaN, NaN, NaN, 0.04089605, "- N/A -   "
30, 1192.24, 0.0501953, NaN, NaN, NaN, 0.0372337, "- N/A -   "
30.17, 1200.11, 0.0504869, NaN, NaN, NaN, 0.0347922, "- N/A -   "
30.34, 1207.74, 0.0507757, NaN, NaN, NaN, 0.0323506, "- N/A -   "
30.51, 1214.77, 0.0510367, NaN, NaN, NaN, 0.04089605, "- N/A -   "
30.68, 1222.41, 0.05132271, NaN, NaN, NaN, 0.04089605, "- N/A -   "
30.85, 1230.52, 0.0516226, NaN, NaN, NaN, 0.0335714, "- N/A -   "
31.02, 1238.39, 0.05191693, NaN, NaN, NaN, 0.0299091, "- N/A -   "
31.19, 1244.83, 0.05216406, NaN, NaN, NaN, 0.04577916, "- N/A -   "
31.36, 1252.82, 0.0524584, NaN, NaN, NaN, 0.0396753, "- N/A -   "
31.53, 1260.81, 0.0527611, NaN, NaN, NaN, 0.03112983, "- N/A -   "
31.7, 1268.32, 0.0530415, NaN, NaN, NaN, 0.0323506, "- N/A -   "
31.87, 1275, 0.05329975, NaN, NaN, NaN, 0.0433376, "- N/A -   "
32.04, 1282.63, 0.0535885, NaN, NaN, NaN, 0.04089605, "- N/A -   "
32.21, 1291.1, 0.0539051, NaN, NaN, NaN, 0.0262467, "- N/A -   "
32.38, 1298.01, 0.0541661, NaN, NaN, NaN, 0.0372337, "- N/A -   "
32.55, 1305.29, 0.05443267, NaN, NaN, NaN, 0.0433376, "- N/A -   "
32.72, 1313.4, 0.0547381, NaN, NaN, NaN, 0.0347922, "- N/A -   "
32.89, 1320.79, 0.0550158, NaN, NaN, NaN, 0.03601294, "- N/A -   "
33.06, 1328.54, 0.0553101, NaN, NaN, NaN, 0.0323506, "- N/A -   "
33.23, 1335.58, 0.05557391, NaN, NaN, NaN, 0.0396753, "- N/A -   "
33.4, 1343.21, 0.05585714, NaN, NaN, NaN, 0.0396753, "- N/A -   "
33.57, 1351.2, 0.0561598, NaN, NaN, NaN, 0.03112983, "- N/A -   "
33.74, 1358.71, 0.05644026, NaN, NaN, NaN, 0.0323506, "- N/A -   "
33.91, 1365.51, 0.05670405, NaN, NaN, NaN, 0.04089605, "- N/A -   "
34.08, 1373.141, 0.0569845, NaN, NaN, NaN, 0.04211683, "- N/A -   "
34.25, 1381.01, 0.0572844, NaN, NaN, NaN, 0.0347922, "- N/A -   "
34.42, 1389.12, 0.0575815, NaN, NaN, NaN, 0.0286883, "- N/A -   "
34.59, 1395.44, 0.05783419, NaN, NaN, NaN, 0.0433376, "- N/A -   "
34.76, 1403.31, 0.0581202, NaN, NaN, NaN, 0.04089605, "- N/A -   "
34.93, 1411.66, 0.058434, NaN, NaN, NaN, 0.0274675, "- N/A -   "
35.1, 1418.81, 0.0587089, NaN, NaN, NaN, 0.03112983, "- N/A -   "
35.27, 1425.37, 0.05896155, NaN, NaN, NaN, 0.04699994, "- N/A -   "
35.44, 1433.36, 0.0592559, NaN, NaN, NaN, 0.04089605, "- N/A -   "
35.61, 1441.59, 0.0595641, NaN, NaN, NaN, 0.0299091, "- N/A -   "
35.78, 1448.63, 0.0598307, NaN, NaN, NaN, 0.0372337, "- N/A -   "
35.829, 1450.774, 0.059914, NaN, NaN, NaN, 0.03601294, "- N/A -   "