File: 2_Tensile_Data/Hamel_ForceTest_Bolt3_Test10.csv
Time, Load (lb), Position (in), AxialStrain (in), TransverseStrain (in), Auxiliary (), Control Out (V), Stress (psi)
0.0, 10.8512, 0.0, NaN, NaN, NaN, -0.007935055, "- N/A -   "
0.01, 10.8512, 0.0, NaN, NaN, NaN, -6.103888E-4, "- N/A -   "
0.02, 10.8512, 0.0, NaN, NaN, NaN, 0.0115974, "- N/A -   "
0.03, 10.8512, 0.0, NaN, NaN, NaN, 0.03112983, "- N/A -   "
0.04, 10.9691, 8.330256E-6, NaN, NaN, NaN, 0.04699994, "- N/A -   "
0.05, 11.205, 1.94373e-05, NaN, NaN, NaN, 0.06164927, "- N/A -   "
0.06, 11.5589, 3.60978e-05, NaN, NaN, NaN, 0.07385705, "- N/A -   "
0.07, 11.9127, 5.83118e-05, NaN, NaN, NaN, 0.084844, "- N/A -   "
0.08, 12.3845, 8.33026e-05, NaN, NaN, NaN, 0.09338949, "- N/A -   "
0.09, 12.8563, 0.00011107, NaN, NaN, NaN, 0.09949338, "- N/A -   "
0.1, 13.446, 0.000141614, NaN, NaN, NaN, 0.103156, "- N/A -   "
0.11, 13.9178, 0.000177712, NaN, NaN, NaN, 0.095831, "- N/A -   "
0.12, 14.3896, 0.000211033, NaN, NaN, NaN, 0.08850638, "- N/A -   "
0.13, 14.8614, 2.360239E-4, NaN, NaN, NaN, 0.08362327, "- N/A -   "
0.14, 15.2152, 0.000266568, NaN, NaN, NaN, 0.07874016, "- N/A -   "
0.15, 15.5691, 0.000288782, NaN, NaN, NaN, 0.0762986, "- N/A -   "
0.16, 15.9229, 0.000308219, NaN, NaN, NaN, 0.07385705, "- N/A -   "
0.17, 16.1588, 0.000330433, NaN, NaN, NaN, 0.07141549, "- N/A -   "
0.18, 16.5126, 0.000349871, NaN, NaN, NaN, 0.0701947, "- N/A -   "
0.19, 16.86649, 0.000372085, NaN, NaN, NaN, 0.0689739, "- N/A -   "
0.2, 17.1024, 0.000388745, NaN, NaN, NaN, 0.06775316, "- N/A -   "
0.21, 17.4562, 0.000410959, NaN, NaN, NaN, 0.06653238, "- N/A -   "
0.22, 17.6921, 4.276198E-4, NaN, NaN, NaN, 0.0653116, "- N/A -   "
0.23, 17.928, 0.000449834, NaN, NaN, NaN, 0.0640908, "- N/A -   "
0.24, 18.2819, 0.000469271, NaN, NaN, NaN, 0.06287005, "- N/A -   "
0.25, 18.5178, 0.000485932, NaN, NaN, NaN, 0.06164927, "- N/A -   "
0.26, 18.7536, 5.053688E-4, NaN, NaN, NaN, 0.0604285, "- N/A -   "
0.27, 19.1075, 5.248061E-4, NaN, NaN, NaN, 0.0592077, "- N/A -   "
0.28, 19.3434, 5.442434E-4, NaN, NaN, NaN, 0.0579869, "- N/A -   "
0.29, 19.57928, 5.636806E-4, NaN, NaN, NaN, 0.05676616, "- N/A -   "
0.3, 19.8152, 5.831179E-4, NaN, NaN, NaN, 0.0555454, "- N/A -   "
0.31, 20.169, 6.053319E-4, NaN, NaN, NaN, 0.0531038, "- N/A -   "
0.32, 20.6408, 0.000627546, NaN, NaN, NaN, 0.05066227, "- N/A -   "
0.33, 20.8767, 0.000646983, NaN, NaN, NaN, 0.0494415, "- N/A -   "
0.34, 21.1126, 0.00066642, NaN, NaN, NaN, 0.0482207, "- N/A -   "
0.35, 21.3485, 0.000688634, NaN, NaN, NaN, 0.04699994, "- N/A -   "
0.36, 21.5844, 0.000705295, NaN, NaN, NaN, 0.04577916, "- N/A -   "
0.37, 21.8203, 0.000724732, NaN, NaN, NaN, 0.04577916, "- N/A -   "
0.38, 22.1741, 0.000744169, NaN, NaN, NaN, 0.0445584, "- N/A -   "
0.39, 22.41, 7.6083E-4, NaN, NaN, NaN, 0.0433376, "- N/A -   "
0.4, 22.6459, 0.000780267, NaN, NaN, NaN, 0.04211683, "- N/A -   "
0.41, 22.9998, 7.997045E-4, NaN, NaN, NaN, 0.04211683, "- N/A -   "
0.42, 23.2357, 8.16365E-4, NaN, NaN, NaN, 0.04089605, "- N/A -   "
0.43, 23.4715, 8.358023E-4, NaN, NaN, NaN, 0.0396753, "- N/A -   "
0.44, 23.7074, 8.552396E-4, NaN, NaN, NaN, 0.0396753, "- N/A -   "
0.45, 23.9433, 0.0008719, NaN, NaN, NaN, 0.0384545, "- N/A -   "
0.46, 24.1792, 8.885606E-4, NaN, NaN, NaN, 0.0384545, "- N/A -   "
0.47, 24.4151, 0.000907998, NaN, NaN, NaN, 0.0384545, "- N/A -   "
0.48, 24.769, 9.246584E-4, NaN, NaN, NaN, 0.0384545, "- N/A -   "
0.49, 25.0049, 0.000941319, NaN, NaN, NaN, 0.0372337, "- N/A -   "
0.53, 26.0664, 0.00101629, NaN, NaN, NaN, 0.0335714, "- N/A -   "
0.57, 26.892, 0.00108571, NaN, NaN, NaN, 0.0323506, "- N/A -   "
0.61, 27.95355, 0.00115513, NaN, NaN, NaN, 0.03112983, "- N/A -   "
0.65, 28.89713, 0.001218994, NaN, NaN, NaN, 0.0323506, "- N/A -   "
0.69, 29.7228, 0.00128286, NaN, NaN, NaN, 0.0335714, "- N/A -   "
0.73, 30.6663, 0.00134395, NaN, NaN, NaN, 0.0372337, "- N/A -   "
0.77, 31.374, 0.00139671, NaN, NaN, NaN, 0.04211683, "- N/A -   "
0.81, 32.5535, 0.00146057, NaN, NaN, NaN, 0.0433376, "- N/A -   "
0.85, 33.61503, 0.00152721, NaN, NaN, NaN, 0.0445584, "- N/A -   "
0.89, 34.6766, 0.00159108, NaN, NaN, NaN, 0.0445584, "- N/A -   "
0.93, 35.97398, 0.00165772, NaN, NaN, NaN, 0.0445584, "- N/A -   "
0.97, 37.0355, 0.00172992, NaN, NaN, NaN, 0.0433376, "- N/A -   "
1.01, 38.5688, 0.00180767, NaN, NaN, NaN, 0.0384545, "- N/A -   "
1.05, 39.8662, 0.00187708, NaN, NaN, NaN, 0.03601294, "- N/A -   "
1.09, 41.2816, 0.00195483, NaN, NaN, NaN, 0.03112983, "- N/A -   "
1.13, 42.697, 0.00202981, NaN, NaN, NaN, 0.0274675, "- N/A -   "
1.17, 43.9944, 0.00209922, NaN, NaN, NaN, 0.0262467, "- N/A -   "
1.21, 44.93799, 0.00216309, NaN, NaN, NaN, 0.0286883, "- N/A -   "
1.25, 45.8816, 0.0022214, NaN, NaN, NaN, 0.0323506, "- N/A -   "
1.29, 47.061, 0.00228249, NaN, NaN, NaN, 0.0335714, "- N/A -   "
1.33, 48.2405, 0.00234636, NaN, NaN, NaN, 0.0347922, "- N/A -   "
1.37, 49.5379, 0.00241022, NaN, NaN, NaN, 0.03601294, "- N/A -   "
1.41, 50.7174, 0.00247964, NaN, NaN, NaN, 0.03601294, "- N/A -   "
1.45, 52.01483, 0.0025435, NaN, NaN, NaN, 0.0372337, "- N/A -   "
1.49, 52.9584, 0.00259904, NaN, NaN, NaN, 0.04211683, "- N/A -   "
1.53, 54.13789, 0.00266013, NaN, NaN, NaN, 0.0445584, "- N/A -   "
1.57, 55.3174, 0.00272399, NaN, NaN, NaN, 0.0445584, "- N/A -   "
1.61, 56.4968, 0.00279064, NaN, NaN, NaN, 0.0445584, "- N/A -   "
1.65, 57.79426, 0.00286283, NaN, NaN, NaN, 0.0433376, "- N/A -   "
1.69, 59.2096, 0.0029378, NaN, NaN, NaN, 0.0396753, "- N/A -   "
1.73, 60.625, 0.003012776, NaN, NaN, NaN, 0.03601294, "- N/A -   "
1.77, 62.0404, 0.00308219, NaN, NaN, NaN, 0.0335714, "- N/A -   "
1.81, 63.2198, 0.00315161, NaN, NaN, NaN, 0.0323506, "- N/A -   "
1.85, 64.5173, 0.00321548, NaN, NaN, NaN, 0.0335714, "- N/A -   "
1.89, 65.69674, 0.00327657, NaN, NaN, NaN, 0.03601294, "- N/A -   "
1.93, 66.87622, 0.00333766, NaN, NaN, NaN, 0.0384545, "- N/A -   "
1.97, 68.17364, 0.003409851, NaN, NaN, NaN, 0.0372337, "- N/A -   "
2.01, 69.8249, 0.00348205, NaN, NaN, NaN, 0.0335714, "- N/A -   "
2.05, 71.00438, 0.00355147, NaN, NaN, NaN, 0.0335714, "- N/A -   "
2.09, 72.1838, 0.003615331, NaN, NaN, NaN, 0.0335714, "- N/A -   "
2.13, 73.48127, 0.00367364, NaN, NaN, NaN, 0.0372337, "- N/A -   "
2.17, 74.42485, 0.00373195, NaN, NaN, NaN, 0.04089605, "- N/A -   "
2.21, 75.7223, 0.0037986, NaN, NaN, NaN, 0.04211683, "- N/A -   "
2.25, 77.37354, 0.00386802, NaN, NaN, NaN, 0.0396753, "- N/A -   "
2.29, 78.67096, 0.00393466, NaN, NaN, NaN, 0.0396753, "- N/A -   "
2.33, 80.0863, 0.004004076, NaN, NaN, NaN, 0.0384545, "- N/A -   "
2.37, 81.61965, 0.00408183, NaN, NaN, NaN, 0.0347922, "- N/A -   "
2.41, 83.15297, 0.004148467, NaN, NaN, NaN, 0.0335714, "- N/A -   "
2.45, 84.33244, 0.004215109, NaN, NaN, NaN, 0.0335714, "- N/A -   "
2.49, 85.51192, 0.00428175, NaN, NaN, NaN, 0.0347922, "- N/A -   "
2.53, 86.92729, 0.00435117, NaN, NaN, NaN, 0.0335714, "- N/A -   "
2.57, 88.34265, 0.00442059, NaN, NaN, NaN, 0.03112983, "- N/A -   "
2.61, 89.6401, 0.004484454, NaN, NaN, NaN, 0.0323506, "- N/A -   "
2.65, 90.81956, 0.004545543, NaN, NaN, NaN, 0.0347922, "- N/A -   "
2.69, 92.117, 0.004609408, NaN, NaN, NaN, 0.03601294, "- N/A -   "
2.73, 93.53234, 0.00467605, NaN, NaN, NaN, 0.03601294, "- N/A -   "
2.77, 94.9477, 0.00474825, NaN, NaN, NaN, 0.0335714, "- N/A -   "
2.81, 96.24514, 0.00481766, NaN, NaN, NaN, 0.0335714, "- N/A -   "
2.85, 97.4246, 0.004875976, NaN, NaN, NaN, 0.0372337, "- N/A -   "
2.89, 98.60408, 0.004937065, NaN, NaN, NaN, 0.0384545, "- N/A -   "
2.93, 99.9015, 0.00500093, NaN, NaN, NaN, 0.0396753, "- N/A -   "
2.97, 101.199, 0.0050648, NaN, NaN, NaN, 0.04089605, "- N/A -   "
3.01, 102.496, 0.005128661, NaN, NaN, NaN, 0.04211683, "- N/A -   "
3.05, 103.794, 0.005195303, NaN, NaN, NaN, 0.04211683, "- N/A -   "
3.09, 105.209, 0.00526472, NaN, NaN, NaN, 0.04089605, "- N/A -   "
3.13, 106.742, 0.005342471, NaN, NaN, NaN, 0.03601294, "- N/A -   "
3.17, 108.276, 0.00541744, NaN, NaN, NaN, 0.0335714, "- N/A -   "
3.21, 109.5732, 0.005484085, NaN, NaN, NaN, 0.0335714, "- N/A -   "
3.25, 110.753, 0.00554517, NaN, NaN, NaN, 0.0347922, "- N/A -   "
3.29, 112.0501, 0.005609039, NaN, NaN, NaN, 0.03601294, "- N/A -   "
3.33, 113.465, 0.00567846, NaN, NaN, NaN, 0.0347922, "- N/A -   "
3.37, 114.999, 0.00575343, NaN, NaN, NaN, 0.03112983, "- N/A -   "
3.41, 116.414, 0.00582563, NaN, NaN, NaN, 0.0286883, "- N/A -   "
3.45, 117.594, 0.005886714, NaN, NaN, NaN, 0.03112983, "- N/A -   "
3.49, 118.7731, 0.005947802, NaN, NaN, NaN, 0.0335714, "- N/A -   "
3.53, 119.717, 0.006003338, NaN, NaN, NaN, 0.0396753, "- N/A -   "
3.57, 121.014, 0.006056096, NaN, NaN, NaN, 0.0445584, "- N/A -   "
3.61, 122.194, 0.00611996, NaN, NaN, NaN, 0.04577916, "- N/A -   "
3.65, 123.491, 0.00618938, NaN, NaN, NaN, 0.04699994, "- N/A -   "
3.69, 125.024, 0.0062588, NaN, NaN, NaN, 0.0445584, "- N/A -   "
3.73, 126.558, 0.006336548, NaN, NaN, NaN, 0.04089605, "- N/A -   "
3.77, 128.091, 0.00641152, NaN, NaN, NaN, 0.03601294, "- N/A -   "
3.81, 129.624, 0.006483716, NaN, NaN, NaN, 0.0335714, "- N/A -   "
3.85, 131.04, 0.00655313, NaN, NaN, NaN, 0.0323506, "- N/A -   "
3.89, 132.219, 0.006619776, NaN, NaN, NaN, 0.0323506, "- N/A -   "
3.93, 133.752, 0.00669475, NaN, NaN, NaN, 0.0286883, "- N/A -   "
3.97, 135.05, 0.006764168, NaN, NaN, NaN, 0.0274675, "- N/A -   "
4.01, 136.465, 0.00682803, NaN, NaN, NaN, 0.0286883, "- N/A -   "
4.05, 137.527, 0.006889122, NaN, NaN, NaN, 0.0323506, "- N/A -   "
4.09, 138.824, 0.00695299, NaN, NaN, NaN, 0.0323506, "- N/A -   "
4.13, 140.004, 0.0070113, NaN, NaN, NaN, 0.0372337, "- N/A -   "
4.17, 141.065, 0.00706961, NaN, NaN, NaN, 0.0396753, "- N/A -   "
4.21, 142.245, 0.00712792, NaN, NaN, NaN, 0.0433376, "- N/A -   "
4.25, 143.424, 0.00718901, NaN, NaN, NaN, 0.04577916, "- N/A -   "
4.29, 144.8395, 0.00725843, NaN, NaN, NaN, 0.04577916, "- N/A -   "
4.33, 146.137, 0.007325071, NaN, NaN, NaN, 0.0445584, "- N/A -   "
4.37, 147.316, 0.007388937, NaN, NaN, NaN, 0.04699994, "- N/A -   "
4.41, 148.8497, 0.00746113, NaN, NaN, NaN, 0.0433376, "- N/A -   "
4.45, 150.265, 0.00753333, NaN, NaN, NaN, 0.04089605, "- N/A -   "
4.49, 151.68, 0.007613853, NaN, NaN, NaN, 0.03601294, "- N/A -   "
4.53, 153.214, 0.00768883, NaN, NaN, NaN, 0.03112983, "- N/A -   "
4.57, 154.2753, 0.007758245, NaN, NaN, NaN, 0.03112983, "- N/A -   "
4.61, 155.573, 0.00782211, NaN, NaN, NaN, 0.03112983, "- N/A -   "
4.65, 156.752, 0.007885975, NaN, NaN, NaN, 0.0323506, "- N/A -   "
4.69, 157.696, 0.007949841, NaN, NaN, NaN, 0.0335714, "- N/A -   "
4.73, 158.875, 0.008010929, NaN, NaN, NaN, 0.03601294, "- N/A -   "
4.77, 160.055, 0.008077571, NaN, NaN, NaN, 0.03601294, "- N/A -   "
4.81, 161.4701, 0.008144213, NaN, NaN, NaN, 0.03601294, "- N/A -   "
4.85, 162.65, 0.008210856, NaN, NaN, NaN, 0.03601294, "- N/A -   "
4.89, 163.593, 0.00826917, NaN, NaN, NaN, 0.0396753, "- N/A -   "
4.93, 164.655, 0.008324701, NaN, NaN, NaN, 0.0445584, "- N/A -   "
4.97, 165.834, 0.008391344, NaN, NaN, NaN, 0.04577916, "- N/A -   "
5.01, 167.014, 0.008455209, NaN, NaN, NaN, 0.04577916, "- N/A -   "
5.05, 168.429, 0.008527406, NaN, NaN, NaN, 0.0433376, "- N/A -   "
5.09, 169.962, 0.008607931, NaN, NaN, NaN, 0.0384545, "- N/A -   "
5.13, 171.26, 0.008682903, NaN, NaN, NaN, 0.0335714, "- N/A -   "
5.17, 172.6751, 0.008757875, NaN, NaN, NaN, 0.0299091, "- N/A -   "
5.21, 173.973, 0.008827294, NaN, NaN, NaN, 0.0286883, "- N/A -   "
5.25, 175.034, 0.008888383, NaN, NaN, NaN, 0.03112983, "- N/A -   "
5.29, 176.096, 0.008949472, NaN, NaN, NaN, 0.0335714, "- N/A -   "
5.33, 177.275, 0.009016113, NaN, NaN, NaN, 0.0347922, "- N/A -   "
5.37, 178.69, 0.009085532, NaN, NaN, NaN, 0.0323506, "- N/A -   "
5.41, 179.87, 0.009154951, NaN, NaN, NaN, 0.0323506, "- N/A -   "
5.45, 180.931, 0.009216039, NaN, NaN, NaN, 0.0347922, "- N/A -   "
5.49, 181.993, 0.009274351, NaN, NaN, NaN, 0.0372337, "- N/A -   "
5.53, 183.054, 0.009332663, NaN, NaN, NaN, 0.04089605, "- N/A -   "
5.57, 183.998, 0.009393752, NaN, NaN, NaN, 0.0433376, "- N/A -   "
5.61, 185.178, 0.009457616, NaN, NaN, NaN, 0.0445584, "- N/A -   "
5.65, 186.475, 0.009527036, NaN, NaN, NaN, 0.0433376, "- N/A -   "
5.69, 187.89, 0.009599232, NaN, NaN, NaN, 0.04089605, "- N/A -   "
5.73, 188.952, 0.009663097, NaN, NaN, NaN, 0.0433376, "- N/A -   "
5.77, 190.367, 0.009738068, NaN, NaN, NaN, 0.0384545, "- N/A -   "
5.81, 191.7826, 0.00981304, NaN, NaN, NaN, 0.03601294, "- N/A -   "
5.85, 193.08, 0.009879682, NaN, NaN, NaN, 0.0347922, "- N/A -   "
5.89, 194.142, 0.009946325, NaN, NaN, NaN, 0.0347922, "- N/A -   "
5.93, 195.439, 0.010013, NaN, NaN, NaN, 0.0347922, "- N/A -   "
5.97, 196.736, 0.0100824, NaN, NaN, NaN, 0.0335714, "- N/A -   "
5.99, 197.326, 0.0101157, NaN, NaN, NaN, 0.0335714, "- N/A -   "
6, 197.68, 0.0101351, NaN, NaN, NaN, 0.0335714, "- N/A -   "
6.01, 197.916, 0.0101518, NaN, NaN, NaN, 0.0335714, "- N/A -   "
6.04, 198.977, 0.0102018, NaN, NaN, NaN, 0.0335714, "- N/A -   "
6.07, 199.803, 0.0102518, NaN, NaN, NaN, 0.0335714, "- N/A -   "
6.1, 200.629, 0.010299, NaN, NaN, NaN, 0.0335714, "- N/A -   "
6.13, 201.572, 0.0103434, NaN, NaN, NaN, 0.03601294, "- N/A -   "
6.16, 202.516, 0.0103989, NaN, NaN, NaN, 0.0335714, "- N/A -   "
6.19, 203.577, 0.0104517, NaN, NaN, NaN, 0.0323506, "- N/A -   "
6.22, 204.521, 0.0105017, NaN, NaN, NaN, 0.0323506, "- N/A -   "
6.25, 205.347, 0.01054888, NaN, NaN, NaN, 0.0347922, "- N/A -   "
6.28, 206.054, 0.0105905, NaN, NaN, NaN, 0.0372337, "- N/A -   "
6.31, 206.88, 0.0106377, NaN, NaN, NaN, 0.0396753, "- N/A -   "
6.34, 207.823, 0.0106822, NaN, NaN, NaN, 0.04089605, "- N/A -   "
6.37, 208.767, 0.0107294, NaN, NaN, NaN, 0.04211683, "- N/A -   "
6.4, 209.593, 0.0107766, NaN, NaN, NaN, 0.0433376, "- N/A -   "
6.43, 210.418, 0.0108238, NaN, NaN, NaN, 0.0445584, "- N/A -   "
6.46, 211.48, 0.0108765, NaN, NaN, NaN, 0.0433376, "- N/A -   "
6.49, 212.541, 0.0109321, NaN, NaN, NaN, 0.04089605, "- N/A -   "
6.52, 213.603, 0.0109904, NaN, NaN, NaN, 0.0384545, "- N/A -   "
6.55, 214.6644, 0.0110459, NaN, NaN, NaN, 0.0347922, "- N/A -   "
6.58, 215.844, 0.0111042, NaN, NaN, NaN, 0.0323506, "- N/A -   "
6.61, 216.787, 0.0111542, NaN, NaN, NaN, 0.03112983, "- N/A -   "
6.64, 217.731, 0.0112042, NaN, NaN, NaN, 0.03112983, "- N/A -   "
6.67, 218.557, 0.0112542, NaN, NaN, NaN, 0.03112983, "- N/A -   "
6.7, 219.5, 0.0113042, NaN, NaN, NaN, 0.03112983, "- N/A -   "
6.73, 220.562, 0.0113597, NaN, NaN, NaN, 0.0299091, "- N/A -   "
6.76, 221.741, 0.01141245, NaN, NaN, NaN, 0.0274675, "- N/A -   "
6.79, 222.567, 0.0114652, NaN, NaN, NaN, 0.0274675, "- N/A -   "
6.82, 223.3925, 0.0115069, NaN, NaN, NaN, 0.0299091, "- N/A -   "
6.85, 224.218, 0.0115513, NaN, NaN, NaN, 0.0323506, "- N/A -   "
6.88, 225.162, 0.0115985, NaN, NaN, NaN, 0.0335714, "- N/A -   "
6.91, 225.8694, 0.0116485, NaN, NaN, NaN, 0.0347922, "- N/A -   "
6.94, 226.813, 0.0116901, NaN, NaN, NaN, 0.0372337, "- N/A -   "
6.97, 227.521, 0.0117318, NaN, NaN, NaN, 0.04089605, "- N/A -   "
7, 228.346, 0.0117762, NaN, NaN, NaN, 0.0445584, "- N/A -   "
7.03, 229.172, 0.0118206, NaN, NaN, NaN, 0.04577916, "- N/A -   "
7.06, 230.116, 0.0118706, NaN, NaN, NaN, 0.04699994, "- N/A -   "
7.09, 231.295, 0.0119234, NaN, NaN, NaN, 0.0445584, "- N/A -   "
7.12, 232.357, 0.0119789, NaN, NaN, NaN, 0.04211683, "- N/A -   "
7.15, 233.418, 0.0120344, NaN, NaN, NaN, 0.0396753, "- N/A -   "
7.18, 234.48, 0.0120872, NaN, NaN, NaN, 0.0384545, "- N/A -   "
7.21, 235.5411, 0.0121427, NaN, NaN, NaN, 0.0372337, "- N/A -   "
7.24, 236.485, 0.01219827, NaN, NaN, NaN, 0.0347922, "- N/A -   "
7.27, 237.5462, 0.012251, NaN, NaN, NaN, 0.0335714, "- N/A -   "
7.3, 238.608, 0.01230101, NaN, NaN, NaN, 0.0323506, "- N/A -   "
7.33, 239.551, 0.0123565, NaN, NaN, NaN, 0.0299091, "- N/A -   "
7.36, 240.613, 0.0124065, NaN, NaN, NaN, 0.0299091, "- N/A -   "
7.39, 241.674, 0.0124593, NaN, NaN, NaN, 0.0299091, "- N/A -   "
7.42, 242.5, 0.0125065, NaN, NaN, NaN, 0.0299091, "- N/A -   "
7.45, 243.56, 0.0125592, NaN, NaN, NaN, 0.0299091, "- N/A -   "
7.48, 244.503, 0.01260923, NaN, NaN, NaN, 0.0286883, "- N/A -   "
7.51, 245.328, 0.0126537, NaN, NaN, NaN, 0.03112983, "- N/A -   "
7.54, 246.388, 0.0127009, NaN, NaN, NaN, 0.0323506, "- N/A -   "
7.57, 247.331, 0.0127481, NaN, NaN, NaN, 0.0335714, "- N/A -   "
7.6, 247.92, 0.0127897, NaN, NaN, NaN, 0.0372337, "- N/A -   "
7.63, 248.745, 0.0128341, NaN, NaN, NaN, 0.04089605, "- N/A -   "
7.66, 249.6874, 0.0128758, NaN, NaN, NaN, 0.0433376, "- N/A -   "
7.69, 250.63, 0.0129286, NaN, NaN, NaN, 0.0433376, "- N/A -   "
7.72, 251.5726, 0.0129785, NaN, NaN, NaN, 0.0433376, "- N/A -   "
7.75, 252.633, 0.0130257, NaN, NaN, NaN, 0.0433376, "- N/A -   "
7.78, 253.576, 0.0130757, NaN, NaN, NaN, 0.0433376, "- N/A -   "
7.81, 254.6361, 0.0131285, NaN, NaN, NaN, 0.04211683, "- N/A -   "
7.84, 255.579, 0.01318124, NaN, NaN, NaN, 0.04089605, "- N/A -   "
7.87, 256.757, 0.0132368, NaN, NaN, NaN, 0.0384545, "- N/A -   "
7.9, 257.9352, 0.0132923, NaN, NaN, NaN, 0.03601294, "- N/A -   "
7.93, 259.113, 0.0133534, NaN, NaN, NaN, 0.0323506, "- N/A -   "
7.96, 260.174, 0.0134062, NaN, NaN, NaN, 0.0299091, "- N/A -   "
7.99, 261.234, 0.0134589, NaN, NaN, NaN, 0.0286883, "- N/A -   "
8.02, 262.295, 0.0135117, NaN, NaN, NaN, 0.0274675, "- N/A -   "
8.05, 263.12, 0.0135617, NaN, NaN, NaN, 0.0274675, "- N/A -   "
8.08, 264.0622, 0.0136089, NaN, NaN, NaN, 0.0286883, "- N/A -   "
[...]
35.41, 1362.41, 0.0591531, NaN, NaN, NaN, 0.0323506, "- N/A -   "
35.48, 1365.15, 0.0592614, NaN, NaN, NaN, 0.03601294, "- N/A -   "
35.55, 1368.25, 0.05937806, NaN, NaN, NaN, 0.03601294, "- N/A -   "
35.62, 1371.11, 0.0594836, NaN, NaN, NaN, 0.04089605, "- N/A -   "
35.69, 1373.86, 0.0595891, NaN, NaN, NaN, 0.04577916, "- N/A -   "
35.76, 1377.08, 0.0597057, NaN, NaN, NaN, 0.04699994, "- N/A -   "
35.83, 1381.01, 0.05984733, NaN, NaN, NaN, 0.0347922, "- N/A -   "
35.9, 1384.59, 0.05997784, NaN, NaN, NaN, 0.0299091, "- N/A -   "
35.97, 1387.45, 0.06008891, NaN, NaN, NaN, 0.0323506, "- N/A -   "
36.04, 1390.07, 0.06019165, NaN, NaN, NaN, 0.0384545, "- N/A -   "
36.11, 1393.41, 0.0603138, NaN, NaN, NaN, 0.0347922, "- N/A -   "
36.18, 1396.75, 0.0604332, NaN, NaN, NaN, 0.0335714, "- N/A -   "
36.25, 1399.5, 0.060536, NaN, NaN, NaN, 0.0396753, "- N/A -   "
36.32, 1402.12, 0.0606387, NaN, NaN, NaN, 0.04577916, "- N/A -   "
36.39, 1405.7, 0.06076921, NaN, NaN, NaN, 0.0396753, "- N/A -   "
36.46, 1409.04, 0.0608914, NaN, NaN, NaN, 0.0372337, "- N/A -   "
36.53, 1412.14, 0.061008, NaN, NaN, NaN, 0.0372337, "- N/A -   "
36.6, 1415.48, 0.0611274, NaN, NaN, NaN, 0.03601294, "- N/A -   "
36.67, 1418.7, 0.0612524, NaN, NaN, NaN, 0.0335714, "- N/A -   "
36.74, 1421.915, 0.06137177, NaN, NaN, NaN, 0.03112983, "- N/A -   "
36.81, 1425.13, 0.0614884, NaN, NaN, NaN, 0.03112983, "- N/A -   "
36.88, 1428, 0.0615995, NaN, NaN, NaN, 0.0335714, "- N/A -   "
36.95, 1431.1, 0.0617133, NaN, NaN, NaN, 0.03601294, "- N/A -   "
37.02, 1433.96, 0.06181605, NaN, NaN, NaN, 0.04089605, "- N/A -   "
37.09, 1436.7, 0.06192434, NaN, NaN, NaN, 0.0445584, "- N/A -   "
37.16, 1439.8, 0.06203541, NaN, NaN, NaN, 0.04699994, "- N/A -   "
37.23, 1443.38, 0.0621687, NaN, NaN, NaN, 0.04089605, "- N/A -   "
37.3, 1447.08, 0.0622992, NaN, NaN, NaN, 0.0347922, "- N/A -   "
37.37, 1450.06, 0.06241305, NaN, NaN, NaN, 0.0347922, "- N/A -   "
37.44, 1453.04, 0.0625269, NaN, NaN, NaN, 0.03601294, "- N/A -   "
37.51, 1456.86, 0.06266018, NaN, NaN, NaN, 0.0299091, "- N/A -   "
37.58, 1459.72, 0.06277125, NaN, NaN, NaN, 0.03112983, "- N/A -   "
37.65, 1462.22, 0.06287121, NaN, NaN, NaN, 0.0384545, "- N/A -   "
37.72, 1465.08, 0.062974, NaN, NaN, NaN, 0.0445584, "- N/A -   "
37.79, 1467.95, 0.06308503, NaN, NaN, NaN, 0.04699994, "- N/A -   "
37.86, 1471.64, 0.06321831, NaN, NaN, NaN, 0.04089605, "- N/A -   "
37.93, 1475.1, 0.0633433, NaN, NaN, NaN, 0.03601294, "- N/A -   "
38, 1478.44, 0.06346822, NaN, NaN, NaN, 0.0335714, "- N/A -   "
38.07, 1482.02, 0.06359594, NaN, NaN, NaN, 0.0274675, "- N/A -   "
38.14, 1485, 0.0637098, NaN, NaN, NaN, 0.0286883, "- N/A -   "
38.21, 1487.98, 0.06382086, NaN, NaN, NaN, 0.03112983, "- N/A -   "
38.28, 1490.6, 0.0639208, NaN, NaN, NaN, 0.0384545, "- N/A -   "
38.35, 1493.11, 0.06402356, NaN, NaN, NaN, 0.04577916, "- N/A -   "
38.42, 1496.33, 0.06414297, NaN, NaN, NaN, 0.0433376, "- N/A -   "
38.49, 1499.67, 0.06425959, NaN, NaN, NaN, 0.0433376, "- N/A -   "
38.56, 1502.77, 0.06437621, NaN, NaN, NaN, 0.0433376, "- N/A -   "
38.63, 1506.82, 0.0645206, NaN, NaN, NaN, 0.0323506, "- N/A -   "
38.7, 1510.04, 0.06464278, NaN, NaN, NaN, 0.0286883, "- N/A -   "
38.77, 1513.02, 0.06475107, NaN, NaN, NaN, 0.0323506, "- N/A -   "
38.84, 1515.89, 0.06485659, NaN, NaN, NaN, 0.0372337, "- N/A -   "
38.91, 1519.11, 0.06497599, NaN, NaN, NaN, 0.03601294, "- N/A -   "
38.98, 1522.56, 0.06509817, NaN, NaN, NaN, 0.0335714, "- N/A -   "
39.05, 1524.95, 0.06519535, NaN, NaN, NaN, 0.0433376, "- N/A -   "
39.12, 1527.93, 0.0653064, NaN, NaN, NaN, 0.0445584, "- N/A -   "
39.19, 1531.51, 0.06543416, NaN, NaN, NaN, 0.0396753, "- N/A -   "
39.26, 1535.44, 0.06557577, NaN, NaN, NaN, 0.0299091, "- N/A -   "
39.33, 1538.54, 0.0656924, NaN, NaN, NaN, 0.0286883, "- N/A -   "
39.4, 1541.167, 0.06579514, NaN, NaN, NaN, 0.03601294, "- N/A -   "
39.47, 1544.39, 0.06590898, NaN, NaN, NaN, 0.03601294, "- N/A -   "
39.54, 1547.73, 0.06603394, NaN, NaN, NaN, 0.0323506, "- N/A -   "
39.61, 1550.95, 0.06615056, NaN, NaN, NaN, 0.0323506, "- N/A -   "
39.68, 1553.69, 0.0662533, NaN, NaN, NaN, 0.0384545, "- N/A -   "
39.75, 1556.67, 0.06636437, NaN, NaN, NaN, 0.04089605, "- N/A -   "
39.82, 1559.77, 0.066481, NaN, NaN, NaN, 0.04211683, "- N/A -   "
39.89, 1562.99, 0.06660039, NaN, NaN, NaN, 0.04089605, "- N/A -   "
39.96, 1566.21, 0.06671979, NaN, NaN, NaN, 0.0396753, "- N/A -   "
40.03, 1569.549, 0.06684475, NaN, NaN, NaN, 0.0372337, "- N/A -   "
40.1, 1572.888, 0.06696692, NaN, NaN, NaN, 0.0335714, "- N/A -   "
40.17, 1575.87, 0.067078, NaN, NaN, NaN, 0.03601294, "- N/A -   "
40.24, 1578.85, 0.06718906, NaN, NaN, NaN, 0.0384545, "- N/A -   "
40.31, 1582.19, 0.06731679, NaN, NaN, NaN, 0.0335714, "- N/A -   "
40.38, 1585.29, 0.0674306, NaN, NaN, NaN, 0.03601294, "- N/A -   "
40.45, 1587.91, 0.0675306, NaN, NaN, NaN, 0.04211683, "- N/A -   "
40.52, 1591.13, 0.0676472, NaN, NaN, NaN, 0.04211683, "- N/A -   "
40.59, 1594.35, 0.06776663, NaN, NaN, NaN, 0.04089605, "- N/A -   "
40.66, 1598.17, 0.06790269, NaN, NaN, NaN, 0.0323506, "- N/A -   "
40.73, 1601.15, 0.0680193, NaN, NaN, NaN, 0.0323506, "- N/A -   "
40.8, 1604.132, 0.06813594, NaN, NaN, NaN, 0.0335714, "- N/A -   "
40.87, 1607.47, 0.0682553, NaN, NaN, NaN, 0.0323506, "- N/A -   "
40.94, 1610.45, 0.06836919, NaN, NaN, NaN, 0.0323506, "- N/A -   "
41.01, 1613.43, 0.06848025, NaN, NaN, NaN, 0.0347922, "- N/A -   "
41.08, 1616.18, 0.068583, NaN, NaN, NaN, 0.04089605, "- N/A -   "
41.15, 1618.8, 0.06868851, NaN, NaN, NaN, 0.04577916, "- N/A -   "
41.22, 1622.02, 0.06880236, NaN, NaN, NaN, 0.04699994, "- N/A -   "
41.29, 1625.6, 0.06893564, NaN, NaN, NaN, 0.0396753, "- N/A -   "
41.36, 1629.06, 0.06906337, NaN, NaN, NaN, 0.0347922, "- N/A -   "
41.43, 1632.16, 0.06918555, NaN, NaN, NaN, 0.0323506, "- N/A -   "
41.5, 1635.5, 0.06930495, NaN, NaN, NaN, 0.03112983, "- N/A -   "
41.57, 1638.48, 0.0694216, NaN, NaN, NaN, 0.03112983, "- N/A -   "
41.64, 1641.34, 0.06952987, NaN, NaN, NaN, 0.0347922, "- N/A -   "
41.71, 1644.08, 0.0696326, NaN, NaN, NaN, 0.04089605, "- N/A -   "
41.78, 1646.82, 0.0697409, NaN, NaN, NaN, 0.0445584, "- N/A -   "
41.85, 1649.92, 0.0698603, NaN, NaN, NaN, 0.0445584, "- N/A -   "
41.92, 1653.383, 0.0699853, NaN, NaN, NaN, 0.04089605, "- N/A -   "
41.99, 1656.72, 0.07010743, NaN, NaN, NaN, 0.0372337, "- N/A -   "
42.06, 1660.42, 0.0702435, NaN, NaN, NaN, 0.0286883, "- N/A -   "
42.13, 1663.52, 0.0703629, NaN, NaN, NaN, 0.0286883, "- N/A -   "
42.2, 1666.26, 0.07047119, NaN, NaN, NaN, 0.03112983, "- N/A -   "
42.27, 1669.24, 0.07057948, NaN, NaN, NaN, 0.0347922, "- N/A -   "
42.34, 1672.22, 0.07069055, NaN, NaN, NaN, 0.0372337, "- N/A -   "
42.41, 1675.21, 0.0708044, NaN, NaN, NaN, 0.0384545, "- N/A -   "
42.48, 1677.949, 0.07090713, NaN, NaN, NaN, 0.0445584, "- N/A -   "
42.55, 1680.93, 0.07102098, NaN, NaN, NaN, 0.04577916, "- N/A -   "
42.62, 1684.51, 0.07115149, NaN, NaN, NaN, 0.0396753, "- N/A -   "
42.69, 1688.09, 0.07127922, NaN, NaN, NaN, 0.0347922, "- N/A -   "
42.76, 1691.31, 0.07140695, NaN, NaN, NaN, 0.0299091, "- N/A -   "
42.83, 1694.41, 0.07152357, NaN, NaN, NaN, 0.0299091, "- N/A -   "
42.9, 1697.39, 0.07163742, NaN, NaN, NaN, 0.03112983, "- N/A -   "
42.97, 1700.49, 0.07175127, NaN, NaN, NaN, 0.0323506, "- N/A -   "
43.04, 1703.23, 0.07185123, NaN, NaN, NaN, 0.0396753, "- N/A -   "
43.11, 1705.73, 0.07195397, NaN, NaN, NaN, 0.04577916, "- N/A -   "
43.18, 1708.84, 0.0720706, NaN, NaN, NaN, 0.04577916, "- N/A -   "
43.25, 1712.17, 0.07219277, NaN, NaN, NaN, 0.0433376, "- N/A -   "
43.32, 1715.87, 0.07233161, NaN, NaN, NaN, 0.0335714, "- N/A -   "
43.39, 1719.09, 0.07245101, NaN, NaN, NaN, 0.0323506, "- N/A -   "
43.46, 1722.07, 0.0725649, NaN, NaN, NaN, 0.0335714, "- N/A -   "
43.53, 1725.292, 0.07268426, NaN, NaN, NaN, 0.0323506, "- N/A -   "
43.6, 1728.51, 0.0728037, NaN, NaN, NaN, 0.0323506, "- N/A -   "
43.67, 1731.37, 0.07292028, NaN, NaN, NaN, 0.0323506, "- N/A -   "
43.74, 1734.36, 0.07303135, NaN, NaN, NaN, 0.0335714, "- N/A -   "
43.81, 1736.98, 0.0731369, NaN, NaN, NaN, 0.0384545, "- N/A -   "
43.88, 1739.6, 0.07323961, NaN, NaN, NaN, 0.0445584, "- N/A -   "
43.95, 1742.58, 0.0733507, NaN, NaN, NaN, 0.04699994, "- N/A -   "
44.02, 1745.8, 0.07347286, NaN, NaN, NaN, 0.0445584, "- N/A -   "
44.09, 1749.62, 0.07360891, NaN, NaN, NaN, 0.03601294, "- N/A -   "
44.16, 1752.96, 0.0737339, NaN, NaN, NaN, 0.0323506, "- N/A -   "
44.23, 1756.06, 0.07385049, NaN, NaN, NaN, 0.0323506, "- N/A -   "
44.3, 1759.4, 0.0739754, NaN, NaN, NaN, 0.0286883, "- N/A -   "
44.363, 1762.14, 0.07408096, NaN, NaN, NaN, 0.0299091, "- N/A -   "