File: 2_Tensile_Data/Hamel_ForceTest_Bolt7_Test7.csv
Time, Load (lb), Position (in), AxialStrain (in), TransverseStrain (in), Auxiliary (), Control Out (V), Stress (psi)
0.0, 6.723006, 0.0, NaN, NaN, NaN, -0.006714277, "- N/A -   "
0.01, 6.60506, 0.0, NaN, NaN, NaN, 6.103888E-4, "- N/A -   "
0.02, 6.723006, 2.776752E-6, NaN, NaN, NaN, 0.006714277, "- N/A -   "
0.03, 6.60506, 2.776752E-6, NaN, NaN, NaN, 0.0140389, "- N/A -   "
0.04, 6.723006, 5.553504E-6, NaN, NaN, NaN, 0.03112983, "- N/A -   "
0.05, 6.84095, 1.1107e-05, NaN, NaN, NaN, 0.0482207, "- N/A -   "
0.06, 6.9589, 2.2214e-05, NaN, NaN, NaN, 0.06287005, "- N/A -   "
0.07, 7.312743, 3.88745e-05, NaN, NaN, NaN, 0.0750778, "- N/A -   "
0.08, 7.666586, 5.83118e-05, NaN, NaN, NaN, 0.08606482, "- N/A -   "
0.09, 8.256323, 8.05258E-5, NaN, NaN, NaN, 0.095831, "- N/A -   "
0.1, 8.846061, 0.00011107, NaN, NaN, NaN, 0.101935, "- N/A -   "
0.11, 9.435798, 0.000144391, NaN, NaN, NaN, 0.101935, "- N/A -   "
0.12, 10.0255, 0.000172159, NaN, NaN, NaN, 0.095831, "- N/A -   "
0.13, 10.4973, 0.000197149, NaN, NaN, NaN, 0.09216871, "- N/A -   "
0.14, 10.9691, 0.00022214, NaN, NaN, NaN, 0.0897272, "- N/A -   "
0.15, 11.5589, 0.000244354, NaN, NaN, NaN, 0.08606482, "- N/A -   "
0.16, 12.0306, 0.000269345, NaN, NaN, NaN, 0.08240249, "- N/A -   "
0.17, 12.5024, 0.000291559, NaN, NaN, NaN, 0.0799609, "- N/A -   "
0.18, 12.9742, 0.000319326, NaN, NaN, NaN, 0.0762986, "- N/A -   "
0.19, 13.446, 0.000338764, NaN, NaN, NaN, 0.07385705, "- N/A -   "
0.2, 13.9178, 0.000360978, NaN, NaN, NaN, 0.07141549, "- N/A -   "
0.21, 14.2716, 0.000383192, NaN, NaN, NaN, 0.0701947, "- N/A -   "
0.22, 14.6255, 0.000402629, NaN, NaN, NaN, 0.06775316, "- N/A -   "
0.23, 14.9793, 0.000424843, NaN, NaN, NaN, 0.0653116, "- N/A -   "
0.24, 15.5691, 4.442803E-4, NaN, NaN, NaN, 0.0640908, "- N/A -   "
0.25, 15.805, 4.664943E-4, NaN, NaN, NaN, 0.06287005, "- N/A -   "
0.26, 16.27675, 4.831548E-4, NaN, NaN, NaN, 0.06164927, "- N/A -   "
0.27, 16.6306, 0.000502592, NaN, NaN, NaN, 0.0604285, "- N/A -   "
0.28, 17.1024, 0.000527583, NaN, NaN, NaN, 0.0579869, "- N/A -   "
0.29, 17.5742, 5.470201E-4, NaN, NaN, NaN, 0.0555454, "- N/A -   "
0.3, 18.046, 0.000569234, NaN, NaN, NaN, 0.0531038, "- N/A -   "
0.31, 18.3998, 0.000591448, NaN, NaN, NaN, 0.05188305, "- N/A -   "
0.32, 18.8716, 6.108854E-4, NaN, NaN, NaN, 0.0494415, "- N/A -   "
0.33, 19.2254, 6.330994E-4, NaN, NaN, NaN, 0.04699994, "- N/A -   "
0.34, 19.8152, 0.000655313, NaN, NaN, NaN, 0.04577916, "- N/A -   "
0.35, 20.169, 6.747507E-4, NaN, NaN, NaN, 0.0433376, "- N/A -   "
0.36, 20.6408, 6.969647E-4, NaN, NaN, NaN, 0.04211683, "- N/A -   "
0.37, 21.1126, 0.000716402, NaN, NaN, NaN, 0.04089605, "- N/A -   "
0.38, 21.3485, 0.000733062, NaN, NaN, NaN, 0.0396753, "- N/A -   "
0.39, 21.8203, 0.0007525, NaN, NaN, NaN, 0.0396753, "- N/A -   "
0.4, 22.0562, 7.691603E-4, NaN, NaN, NaN, 0.0384545, "- N/A -   "
0.41, 22.29207, 0.000785821, NaN, NaN, NaN, 0.0384545, "- N/A -   "
0.42, 22.7639, 0.000802481, NaN, NaN, NaN, 0.0384545, "- N/A -   "
0.43, 22.9998, 8.191418E-4, NaN, NaN, NaN, 0.0396753, "- N/A -   "
0.44, 23.3536, 8.358023E-4, NaN, NaN, NaN, 0.0396753, "- N/A -   "
0.45, 23.7074, 8.524628E-4, NaN, NaN, NaN, 0.0384545, "- N/A -   "
0.46, 24.0613, 0.0008719, NaN, NaN, NaN, 0.0372337, "- N/A -   "
0.47, 24.4151, 0.000891337, NaN, NaN, NaN, 0.0372337, "- N/A -   "
0.48, 24.8869, 9.107746E-4, NaN, NaN, NaN, 0.03601294, "- N/A -   "
0.49, 25.2408, 9.274351E-4, NaN, NaN, NaN, 0.0347922, "- N/A -   "
0.5, 25.7125, 9.440956E-4, NaN, NaN, NaN, 0.0347922, "- N/A -   "
0.51, 25.9484, 0.000960756, NaN, NaN, NaN, 0.0347922, "- N/A -   "
0.56, 27.7177, 0.00105239, NaN, NaN, NaN, 0.0323506, "- N/A -   "
0.61, 29.4869, 0.00113847, NaN, NaN, NaN, 0.03112983, "- N/A -   "
0.66, 31.1381, 0.00121622, NaN, NaN, NaN, 0.0335714, "- N/A -   "
0.71, 32.7894, 0.00129119, NaN, NaN, NaN, 0.0372337, "- N/A -   "
0.76, 34.08682, 0.00135783, NaN, NaN, NaN, 0.0433376, "- N/A -   "
0.81, 35.6201, 0.00143558, NaN, NaN, NaN, 0.04577916, "- N/A -   "
0.86, 37.3893, 0.00151888, NaN, NaN, NaN, 0.04577916, "- N/A -   "
0.91, 39.2765, 0.00161052, NaN, NaN, NaN, 0.04211683, "- N/A -   "
0.96, 41.2816, 0.00170215, NaN, NaN, NaN, 0.0384545, "- N/A -   "
1.01, 43.1688, 0.00179656, NaN, NaN, NaN, 0.0347922, "- N/A -   "
1.06, 44.93799, 0.001879861, NaN, NaN, NaN, 0.0335714, "- N/A -   "
1.11, 46.9431, 0.00197149, NaN, NaN, NaN, 0.03112983, "- N/A -   "
1.16, 48.7123, 0.00206035, NaN, NaN, NaN, 0.0274675, "- N/A -   "
1.21, 50.3636, 0.00214088, NaN, NaN, NaN, 0.0286883, "- N/A -   "
1.26, 52.1328, 0.00221862, NaN, NaN, NaN, 0.03112983, "- N/A -   "
1.31, 53.6661, 0.002293597, NaN, NaN, NaN, 0.0347922, "- N/A -   "
1.36, 55.3174, 0.00236857, NaN, NaN, NaN, 0.0384545, "- N/A -   "
1.41, 56.85068, 0.00244076, NaN, NaN, NaN, 0.0433376, "- N/A -   "
1.46, 58.6199, 0.00252129, NaN, NaN, NaN, 0.04577916, "- N/A -   "
1.51, 60.3891, 0.00260182, NaN, NaN, NaN, 0.04577916, "- N/A -   "
1.56, 62.1583, 0.00268512, NaN, NaN, NaN, 0.04577916, "- N/A -   "
1.61, 64.16342, 0.00277398, NaN, NaN, NaN, 0.0433376, "- N/A -   "
1.66, 66.40443, 0.00287116, NaN, NaN, NaN, 0.0384545, "- N/A -   "
1.71, 68.52748, 0.00297112, NaN, NaN, NaN, 0.0299091, "- N/A -   "
1.76, 70.5326, 0.00305998, NaN, NaN, NaN, 0.0274675, "- N/A -   "
1.81, 72.1838, 0.00313773, NaN, NaN, NaN, 0.0299091, "- N/A -   "
1.86, 73.9531, 0.00321548, NaN, NaN, NaN, 0.0323506, "- N/A -   "
1.91, 75.7223, 0.00329045, NaN, NaN, NaN, 0.03601294, "- N/A -   "
1.96, 77.37354, 0.0033682, NaN, NaN, NaN, 0.0396753, "- N/A -   "
2.01, 79.37865, 0.00345428, NaN, NaN, NaN, 0.0372337, "- N/A -   "
2.06, 81.26581, 0.00353758, NaN, NaN, NaN, 0.0372337, "- N/A -   "
2.11, 82.79912, 0.00361255, NaN, NaN, NaN, 0.04089605, "- N/A -   "
2.16, 84.68629, 0.00369308, NaN, NaN, NaN, 0.04211683, "- N/A -   "
2.21, 86.4555, 0.003770829, NaN, NaN, NaN, 0.0445584, "- N/A -   "
2.26, 88.57855, 0.003859685, NaN, NaN, NaN, 0.04211683, "- N/A -   "
2.31, 90.70161, 0.00395965, NaN, NaN, NaN, 0.03601294, "- N/A -   "
2.36, 92.94261, 0.004051281, NaN, NaN, NaN, 0.03112983, "- N/A -   "
2.41, 94.9477, 0.00413736, NaN, NaN, NaN, 0.0299091, "- N/A -   "
2.46, 96.71693, 0.004215109, NaN, NaN, NaN, 0.0323506, "- N/A -   "
2.51, 98.4861, 0.004295635, NaN, NaN, NaN, 0.0335714, "- N/A -   "
2.56, 100.3733, 0.004384491, NaN, NaN, NaN, 0.0323506, "- N/A -   "
2.61, 102.26, 0.004465017, NaN, NaN, NaN, 0.0323506, "- N/A -   "
2.66, 104.148, 0.004542766, NaN, NaN, NaN, 0.0347922, "- N/A -   "
2.71, 105.799, 0.00462607, NaN, NaN, NaN, 0.03601294, "- N/A -   "
2.76, 107.45, 0.004698264, NaN, NaN, NaN, 0.0396753, "- N/A -   "
2.81, 109.219, 0.00477879, NaN, NaN, NaN, 0.04089605, "- N/A -   "
2.86, 110.989, 0.004859315, NaN, NaN, NaN, 0.04211683, "- N/A -   "
2.91, 112.994, 0.004945395, NaN, NaN, NaN, 0.04089605, "- N/A -   "
2.96, 114.999, 0.005034251, NaN, NaN, NaN, 0.0384545, "- N/A -   "
3.01, 116.768, 0.005123107, NaN, NaN, NaN, 0.03601294, "- N/A -   "
3.06, 118.7731, 0.005209187, NaN, NaN, NaN, 0.0347922, "- N/A -   "
3.11, 120.66, 0.00529527, NaN, NaN, NaN, 0.0347922, "- N/A -   "
3.16, 122.665, 0.00538135, NaN, NaN, NaN, 0.0323506, "- N/A -   "
3.21, 124.317, 0.005461871, NaN, NaN, NaN, 0.0335714, "- N/A -   "
3.26, 126.204, 0.00554795, NaN, NaN, NaN, 0.0335714, "- N/A -   "
3.31, 128.091, 0.005631253, NaN, NaN, NaN, 0.0323506, "- N/A -   "
3.36, 129.624, 0.005711778, NaN, NaN, NaN, 0.0335714, "- N/A -   "
3.41, 131.511, 0.00579508, NaN, NaN, NaN, 0.0347922, "- N/A -   "
3.46, 133.045, 0.00587005, NaN, NaN, NaN, 0.0372337, "- N/A -   "
3.51, 134.696, 0.005945026, NaN, NaN, NaN, 0.04089605, "- N/A -   "
3.56, 136.465, 0.006025552, NaN, NaN, NaN, 0.0433376, "- N/A -   "
3.61, 138.116, 0.0061033, NaN, NaN, NaN, 0.0445584, "- N/A -   "
3.66, 139.8857, 0.00618938, NaN, NaN, NaN, 0.0445584, "- N/A -   "
3.71, 141.891, 0.00628379, NaN, NaN, NaN, 0.04089605, "- N/A -   "
3.76, 144.014, 0.006380976, NaN, NaN, NaN, 0.0335714, "- N/A -   "
3.81, 145.665, 0.006469832, NaN, NaN, NaN, 0.0323506, "- N/A -   "
3.86, 147.0805, 0.00654758, NaN, NaN, NaN, 0.0347922, "- N/A -   "
3.91, 148.732, 0.006630884, NaN, NaN, NaN, 0.0335714, "- N/A -   "
3.96, 150.737, 0.00672529, NaN, NaN, NaN, 0.0286883, "- N/A -   "
4.01, 152.152, 0.00680304, NaN, NaN, NaN, 0.03112983, "- N/A -   "
4.06, 153.686, 0.006880791, NaN, NaN, NaN, 0.0335714, "- N/A -   "
4.11, 155.219, 0.006961317, NaN, NaN, NaN, 0.03601294, "- N/A -   "
4.16, 156.5163, 0.007030736, NaN, NaN, NaN, 0.04089605, "- N/A -   "
4.21, 157.932, 0.007105708, NaN, NaN, NaN, 0.0445584, "- N/A -   "
4.26, 159.347, 0.007183457, NaN, NaN, NaN, 0.04699994, "- N/A -   "
4.31, 161.116, 0.00727509, NaN, NaN, NaN, 0.0433376, "- N/A -   "
4.36, 163.0034, 0.007366723, NaN, NaN, NaN, 0.0396753, "- N/A -   "
4.41, 164.773, 0.00745836, NaN, NaN, NaN, 0.03601294, "- N/A -   "
4.46, 166.424, 0.007547211, NaN, NaN, NaN, 0.0335714, "- N/A -   "
4.51, 168.193, 0.00763329, NaN, NaN, NaN, 0.0323506, "- N/A -   "
4.56, 169.962, 0.007724923, NaN, NaN, NaN, 0.0286883, "- N/A -   "
4.61, 171.614, 0.00780823, NaN, NaN, NaN, 0.0299091, "- N/A -   "
4.66, 173.265, 0.00789431, NaN, NaN, NaN, 0.0274675, "- N/A -   "
4.71, 174.6802, 0.007969277, NaN, NaN, NaN, 0.0323506, "- N/A -   "
4.76, 176.214, 0.008047027, NaN, NaN, NaN, 0.0347922, "- N/A -   "
4.81, 177.393, 0.008113669, NaN, NaN, NaN, 0.04089605, "- N/A -   "
4.86, 178.926, 0.008185865, NaN, NaN, NaN, 0.04577916, "- N/A -   "
4.91, 180.578, 0.008271944, NaN, NaN, NaN, 0.04577916, "- N/A -   "
4.96, 182.229, 0.008355247, NaN, NaN, NaN, 0.0445584, "- N/A -   "
5.01, 184.116, 0.008444103, NaN, NaN, NaN, 0.04211683, "- N/A -   "
5.06, 185.885, 0.008532959, NaN, NaN, NaN, 0.0396753, "- N/A -   "
5.11, 187.89, 0.008630145, NaN, NaN, NaN, 0.0335714, "- N/A -   "
5.16, 189.777, 0.00872455, NaN, NaN, NaN, 0.0299091, "- N/A -   "
5.21, 191.429, 0.00880786, NaN, NaN, NaN, 0.0286883, "- N/A -   "
5.26, 192.962, 0.00889116, NaN, NaN, NaN, 0.0286883, "- N/A -   "
5.31, 194.613, 0.008968908, NaN, NaN, NaN, 0.03112983, "- N/A -   "
5.36, 196.0287, 0.009046658, NaN, NaN, NaN, 0.0335714, "- N/A -   "
5.41, 197.68, 0.00912996, NaN, NaN, NaN, 0.0347922, "- N/A -   "
5.46, 199.213, 0.00920493, NaN, NaN, NaN, 0.0372337, "- N/A -   "
5.51, 200.629, 0.009279904, NaN, NaN, NaN, 0.04089605, "- N/A -   "
5.56, 202.162, 0.009357654, NaN, NaN, NaN, 0.0433376, "- N/A -   "
5.61, 203.813, 0.009438179, NaN, NaN, NaN, 0.0445584, "- N/A -   "
5.66, 205.465, 0.00952148, NaN, NaN, NaN, 0.04577916, "- N/A -   "
5.71, 207.705, 0.009621446, NaN, NaN, NaN, 0.0372337, "- N/A -   "
5.76, 209.593, 0.00971863, NaN, NaN, NaN, 0.0323506, "- N/A -   "
5.81, 211.244, 0.009807487, NaN, NaN, NaN, 0.0299091, "- N/A -   "
5.86, 212.777, 0.00988246, NaN, NaN, NaN, 0.0335714, "- N/A -   "
5.91, 214.311, 0.009957432, NaN, NaN, NaN, 0.03601294, "- N/A -   "
5.96, 216.08, 0.0100435, NaN, NaN, NaN, 0.03601294, "- N/A -   "
6.01, 217.967, 0.0101324, NaN, NaN, NaN, 0.0323506, "- N/A -   "
6.06, 219.5, 0.0102157, NaN, NaN, NaN, 0.0323506, "- N/A -   "
6.11, 221.034, 0.0102906, NaN, NaN, NaN, 0.03601294, "- N/A -   "
6.16, 222.567, 0.0103712, NaN, NaN, NaN, 0.0372337, "- N/A -   "
6.21, 224.1002, 0.0104461, NaN, NaN, NaN, 0.04089605, "- N/A -   "
6.26, 225.8694, 0.0105322, NaN, NaN, NaN, 0.0396753, "- N/A -   "
6.31, 227.521, 0.01061, NaN, NaN, NaN, 0.04211683, "- N/A -   "
6.36, 229.29, 0.0106988, NaN, NaN, NaN, 0.04089605, "- N/A -   "
6.41, 231.0591, 0.0107877, NaN, NaN, NaN, 0.0372337, "- N/A -   "
6.46, 232.828, 0.010871, NaN, NaN, NaN, 0.0372337, "- N/A -   "
6.51, 234.48, 0.0109515, NaN, NaN, NaN, 0.0384545, "- N/A -   "
6.56, 236.367, 0.0110431, NaN, NaN, NaN, 0.03601294, "- N/A -   "
6.61, 238.254, 0.0111348, NaN, NaN, NaN, 0.03112983, "- N/A -   "
6.66, 240.0231, 0.0112181, NaN, NaN, NaN, 0.0323506, "- N/A -   "
6.71, 241.556, 0.0112986, NaN, NaN, NaN, 0.0323506, "- N/A -   "
6.76, 243.325, 0.0113847, NaN, NaN, NaN, 0.0323506, "- N/A -   "
6.81, 245.092, 0.0114624, NaN, NaN, NaN, 0.0335714, "- N/A -   "
6.86, 246.506, 0.0115374, NaN, NaN, NaN, 0.0372337, "- N/A -   "
6.91, 248.156, 0.01161793, NaN, NaN, NaN, 0.0396753, "- N/A -   "
6.96, 249.805, 0.0116985, NaN, NaN, NaN, 0.0396753, "- N/A -   "
7.01, 251.337, 0.0117734, NaN, NaN, NaN, 0.0445584, "- N/A -   "
7.06, 252.987, 0.011854, NaN, NaN, NaN, 0.0445584, "- N/A -   "
7.11, 255.1074, 0.0119484, NaN, NaN, NaN, 0.04089605, "- N/A -   "
7.16, 257.228, 0.0120455, NaN, NaN, NaN, 0.0335714, "- N/A -   "
7.19, 258.407, 0.0120983, NaN, NaN, NaN, 0.0323506, "- N/A -   "
7.2, 258.76, 0.012115, NaN, NaN, NaN, 0.0323506, "- N/A -   "
7.21, 258.996, 0.0121316, NaN, NaN, NaN, 0.0335714, "- N/A -   "
7.43, 267.0078, 0.0125093, NaN, NaN, NaN, 0.0274675, "- N/A -   "
7.65, 273.606, 0.01283137, NaN, NaN, NaN, 0.04699994, "- N/A -   "
7.87, 282.207, 0.0132257, NaN, NaN, NaN, 0.03601294, "- N/A -   "
8.09, 290.3374, 0.0136061, NaN, NaN, NaN, 0.0286883, "- N/A -   "
8.31, 297.6426, 0.0139421, NaN, NaN, NaN, 0.0433376, "- N/A -   "
8.53, 306.362, 0.0143364, NaN, NaN, NaN, 0.03112983, "- N/A -   "
8.75, 314.138, 0.0146946, NaN, NaN, NaN, 0.03601294, "- N/A -   "
8.97, 321.915, 0.0150389, NaN, NaN, NaN, 0.0445584, "- N/A -   "
9.19, 330.987, 0.015436, NaN, NaN, NaN, 0.03112983, "- N/A -   "
9.41, 339.2352, 0.0157997, NaN, NaN, NaN, 0.0323506, "- N/A -   "
9.63, 346.7761, 0.0161385, NaN, NaN, NaN, 0.04577916, "- N/A -   "
9.85, 355.7309, 0.0165217, NaN, NaN, NaN, 0.0372337, "- N/A -   "
10.07, 364.214, 0.01689376, NaN, NaN, NaN, 0.0347922, "- N/A -   "
10.29, 372.4622, 0.01725196, NaN, NaN, NaN, 0.0384545, "- N/A -   "
10.51, 380.946, 0.0176157, NaN, NaN, NaN, 0.04089605, "- N/A -   "
10.73, 389.783, 0.0179989, NaN, NaN, NaN, 0.0335714, "- N/A -   "
10.95, 398.266, 0.0183571, NaN, NaN, NaN, 0.03601294, "- N/A -   "
11.17, 406.75, 0.0187181, NaN, NaN, NaN, 0.0384545, "- N/A -   "
11.39, 416.058, 0.01910683, NaN, NaN, NaN, 0.0286883, "- N/A -   "
11.61, 424.07, 0.01944837, NaN, NaN, NaN, 0.0396753, "- N/A -   "
11.83, 432.789, 0.0198149, NaN, NaN, NaN, 0.0396753, "- N/A -   "
12.05, 441.7439, 0.0201898, NaN, NaN, NaN, 0.03601294, "- N/A -   "
12.27, 451.17, 0.020573, NaN, NaN, NaN, 0.0286883, "- N/A -   "
12.49, 459.182, 0.02090894, NaN, NaN, NaN, 0.0433376, "- N/A -   "
12.71, 468.608, 0.02129491, NaN, NaN, NaN, 0.0347922, "- N/A -   "
12.93, 477.445, 0.0216559, NaN, NaN, NaN, 0.0372337, "- N/A -   "
13.15, 486.2822, 0.0220141, NaN, NaN, NaN, 0.04089605, "- N/A -   "
13.37, 495.708, 0.0223945, NaN, NaN, NaN, 0.03601294, "- N/A -   "
13.59, 504.899, 0.0227666, NaN, NaN, NaN, 0.0323506, "- N/A -   "
13.81, 513.1465, 0.0231054, NaN, NaN, NaN, 0.0445584, "- N/A -   "
14.03, 523.3173, 0.0234969, NaN, NaN, NaN, 0.0347922, "- N/A -   "
14.25, 532.7798, 0.0238745, NaN, NaN, NaN, 0.0299091, "- N/A -   "
14.47, 540.941, 0.0241994, NaN, NaN, NaN, 0.04699994, "- N/A -   "
14.69, 550.995, 0.02459369, NaN, NaN, NaN, 0.0347922, "- N/A -   "
14.91, 560.4575, 0.02497133, NaN, NaN, NaN, 0.0299091, "- N/A -   "
15.13, 568.8554, 0.0253073, NaN, NaN, NaN, 0.0433376, "- N/A -   "
15.35, 579.264, 0.0257016, NaN, NaN, NaN, 0.03112983, "- N/A -   "
15.57, 588.372, 0.0260598, NaN, NaN, NaN, 0.03601294, "- N/A -   "
15.79, 597.4794, 0.02640691, NaN, NaN, NaN, 0.0433376, "- N/A -   "
16.01, 607.77, 0.02680121, NaN, NaN, NaN, 0.03112983, "- N/A -   "
16.23, 616.9958, 0.0271622, NaN, NaN, NaN, 0.0347922, "- N/A -   "
16.45, 626.103, 0.0275148, NaN, NaN, NaN, 0.0396753, "- N/A -   "
16.67, 636.039, 0.02788692, NaN, NaN, NaN, 0.0372337, "- N/A -   "
16.89, 645.738, 0.02826178, NaN, NaN, NaN, 0.0335714, "- N/A -   "
17.11, 655.082, 0.0286228, NaN, NaN, NaN, 0.03601294, "- N/A -   "
17.33, 664.7812, 0.0289865, NaN, NaN, NaN, 0.0384545, "- N/A -   "
17.55, 674.362, 0.029353, NaN, NaN, NaN, 0.0384545, "- N/A -   "
17.77, 684.1792, 0.0297307, NaN, NaN, NaN, 0.0335714, "- N/A -   "
17.99, 693.6417, 0.0300861, NaN, NaN, NaN, 0.0396753, "- N/A -   "
18.21, 703.6956, 0.0304721, NaN, NaN, NaN, 0.03112983, "- N/A -   "
18.43, 712.567, 0.0308108, NaN, NaN, NaN, 0.04211683, "- N/A -   "
18.65, 722.2657, 0.0311801, NaN, NaN, NaN, 0.04089605, "- N/A -   "
18.87, 732.793, 0.0315744, NaN, NaN, NaN, 0.0286883, "- N/A -   "
19.09, 742.1369, 0.03192154, NaN, NaN, NaN, 0.0372337, "- N/A -   "
19.31, 751.5993, 0.032277, NaN, NaN, NaN, 0.04211683, "- N/A -   "
19.53, 761.8898, 0.0326602, NaN, NaN, NaN, 0.0347922, "- N/A -   "
19.75, 771.7071, 0.0330295, NaN, NaN, NaN, 0.0347922, "- N/A -   "
19.97, 781.288, 0.0333849, NaN, NaN, NaN, 0.0396753, "- N/A -   "
20.19, 791.342, 0.0337653, NaN, NaN, NaN, 0.0323506, "- N/A -   "
20.41, 801.0407, 0.0341291, NaN, NaN, NaN, 0.0347922, "- N/A -   "
20.63, 810.503, 0.0344817, NaN, NaN, NaN, 0.04089605, "- N/A -   "
20.85, 821.0302, 0.0348649, NaN, NaN, NaN, 0.0335714, "- N/A -   "
21.07, 831.202, 0.0352425, NaN, NaN, NaN, 0.0274675, "- N/A -   "
21.29, 839.719, 0.0355674, NaN, NaN, NaN, 0.04577916, "- N/A -   "
21.51, 850.8369, 0.0359673, NaN, NaN, NaN, 0.03112983, "- N/A -   "
21.73, 860.7725, 0.0363366, NaN, NaN, NaN, 0.03112983, "- N/A -   "
21.95, 869.8802, 0.0366753, NaN, NaN, NaN, 0.0433376, "- N/A -   "
22.17, 880.407, 0.0370613, NaN, NaN, NaN, 0.03601294, "- N/A -   "
22.39, 890.3427, 0.03742506, NaN, NaN, NaN, 0.03601294, "- N/A -   "
22.61, 899.687, 0.03777771, NaN, NaN, NaN, 0.04211683, "- N/A -   "
22.83, 910.4505, 0.03816923, NaN, NaN, NaN, 0.03112983, "- N/A -   "
23.05, 920.2678, 0.03853021, NaN, NaN, NaN, 0.0335714, "- N/A -   "
23.27, 929.4938, 0.03887453, NaN, NaN, NaN, 0.0433376, "- N/A -   "
23.49, 940.021, 0.0392522, NaN, NaN, NaN, 0.0384545, "- N/A -   "
23.71, 949.9563, 0.03962425, NaN, NaN, NaN, 0.03601294, "- N/A -   "
23.93, 960.0102, 0.0399936, NaN, NaN, NaN, 0.03601294, "- N/A -   "
24.15, 969.7092, 0.0403434, NaN, NaN, NaN, 0.04211683, "- N/A -   "
24.37, 980.2362, 0.04073495, NaN, NaN, NaN, 0.0323506, "- N/A -   "
24.59, 990.0535, 0.0410904, NaN, NaN, NaN, 0.03601294, "- N/A -   "
24.81, 999.871, 0.0414486, NaN, NaN, NaN, 0.0396753, "- N/A -   "
25.03, 1010.28, 0.0418345, NaN, NaN, NaN, 0.03112983, "- N/A -   "
25.25, 1019.8, 0.0421872, NaN, NaN, NaN, 0.0372337, "- N/A -   "
25.47, 1029.34, 0.0425426, NaN, NaN, NaN, 0.0433376, "- N/A -   "
25.69, 1040.67, 0.0429452, NaN, NaN, NaN, 0.0274675, "- N/A -   "
25.91, 1050.09, 0.0432923, NaN, NaN, NaN, 0.0347922, "- N/A -   "
26.13, 1059.63, 0.0436394, NaN, NaN, NaN, 0.0433376, "- N/A -   "
26.35, 1070.241, 0.0440226, NaN, NaN, NaN, 0.0372337, "- N/A -   "
26.57, 1080.5, 0.0443947, NaN, NaN, NaN, 0.0347922, "- N/A -   "
26.79, 1090.156, 0.04475014, NaN, NaN, NaN, 0.0396753, "- N/A -   "
27.01, 1100.65, 0.04512777, NaN, NaN, NaN, 0.03601294, "- N/A -   "
27.23, 1110.91, 0.0455026, NaN, NaN, NaN, 0.0323506, "- N/A -   "
27.45, 1120.21, 0.04583862, NaN, NaN, NaN, 0.0445584, "- N/A -   "
27.67, 1131.18, 0.04623014, NaN, NaN, NaN, 0.0335714, "- N/A -   "
27.89, 1141.55, 0.046605, NaN, NaN, NaN, 0.0299091, "- N/A -   "
28.11, 1150.38, 0.0469327, NaN, NaN, NaN, 0.04699994, "- N/A -   "
28.33, 1161.35, 0.0473297, NaN, NaN, NaN, 0.0335714, "- N/A -   "
28.55, 1171.84, 0.0477074, NaN, NaN, NaN, 0.0286883, "- N/A -   "
28.77, 1180.79, 0.048035, NaN, NaN, NaN, 0.04577916, "- N/A -   "
28.99, 1191.88, 0.0484321, NaN, NaN, NaN, 0.0335714, "- N/A -   "
29.21, 1201.9, 0.0487931, NaN, NaN, NaN, 0.0347922, "- N/A -   "
29.43, 1211.55, 0.04914018, NaN, NaN, NaN, 0.0433376, "- N/A -   "
29.65, 1222.76, 0.04954003, NaN, NaN, NaN, 0.0286883, "- N/A -   "
29.87, 1232.66, 0.0498955, NaN, NaN, NaN, 0.0335714, "- N/A -   "
30.09, 1242.083, 0.0502425, NaN, NaN, NaN, 0.04211683, "- N/A -   "
30.31, 1252.58, 0.0506202, NaN, NaN, NaN, 0.0372337, "- N/A -   "
30.53, 1263.07, 0.050995, NaN, NaN, NaN, 0.0335714, "- N/A -   "
30.75, 1273.09, 0.0513588, NaN, NaN, NaN, 0.0347922, "- N/A -   "
30.97, 1282.75, 0.0517087, NaN, NaN, NaN, 0.0433376, "- N/A -   "
31.19, 1293.6, 0.052103, NaN, NaN, NaN, 0.03112983, "- N/A -   "
31.41, 1303.38, 0.0524556, NaN, NaN, NaN, 0.0372337, "- N/A -   "
31.63, 1312.92, 0.05280549, NaN, NaN, NaN, 0.0445584, "- N/A -   "
31.85, 1324.13, 0.0532081, NaN, NaN, NaN, 0.0299091, "- N/A -   "
32.07, 1333.55, 0.05354966, NaN, NaN, NaN, 0.0396753, "- N/A -   "
32.29, 1343.328, 0.05391342, NaN, NaN, NaN, 0.04089605, "- N/A -   "
32.51, 1354.3, 0.0543077, NaN, NaN, NaN, 0.0286883, "- N/A -   "
32.73, 1363.72, 0.0546548, NaN, NaN, NaN, 0.0384545, "- N/A -   "
32.95, 1373.26, 0.0550019, NaN, NaN, NaN, 0.04577916, "- N/A -   "
33.17, 1384.35, 0.0553962, NaN, NaN, NaN, 0.0335714, "- N/A -   "
33.39, 1394.37, 0.05576551, NaN, NaN, NaN, 0.0323506, "- N/A -   "
33.61, 1404.03, 0.05611538, NaN, NaN, NaN, 0.0396753, "- N/A -   "
33.83, 1414.4, 0.0564958, NaN, NaN, NaN, 0.0335714, "- N/A -   "
34.05, 1424.54, 0.0568651, NaN, NaN, NaN, 0.0335714, "- N/A -   "
34.27, 1433.721, 0.0572066, NaN, NaN, NaN, 0.0433376, "- N/A -   "
34.49, 1444.69, 0.0575982, NaN, NaN, NaN, 0.0335714, "- N/A -   "
34.71, 1454.95, 0.0579703, NaN, NaN, NaN, 0.0299091, "- N/A -   "
34.93, 1463.77, 0.0582979, NaN, NaN, NaN, 0.04699994, "- N/A -   "
35.15, 1474.86, 0.058695, NaN, NaN, NaN, 0.0335714, "- N/A -   "
35.37, 1485.24, 0.05907262, NaN, NaN, NaN, 0.0299091, "- N/A -   "
35.59, 1494.18, 0.0594058, NaN, NaN, NaN, 0.0445584, "- N/A -   "
35.81, 1505.03, 0.0597974, NaN, NaN, NaN, 0.0335714, "- N/A -   "
36.03, 1514.81, 0.0601583, NaN, NaN, NaN, 0.03601294, "- N/A -   "
36.25, 1524.35, 0.0605082, NaN, NaN, NaN, 0.0433376, "- N/A -   "
36.47, 1535.2, 0.0609025, NaN, NaN, NaN, 0.03112983, "- N/A -   "
36.69, 1544.74, 0.0612635, NaN, NaN, NaN, 0.0347922, "- N/A -   "
36.91, 1554.4, 0.06161335, NaN, NaN, NaN, 0.04211683, "- N/A -   "
37.13, 1564.421, 0.0619854, NaN, NaN, NaN, 0.0396753, "- N/A -   "
37.35, 1574.796, 0.0623686, NaN, NaN, NaN, 0.0323506, "- N/A -   "
37.57, 1584.57, 0.0627296, NaN, NaN, NaN, 0.0347922, "- N/A -   "
37.79, 1594.234, 0.06308225, NaN, NaN, NaN, 0.0396753, "- N/A -   "
38.01, 1604.25, 0.06345989, NaN, NaN, NaN, 0.0347922, "- N/A -   "
38.23, 1614.39, 0.0638292, NaN, NaN, NaN, 0.0347922, "- N/A -   "
38.45, 1623.69, 0.06417629, NaN, NaN, NaN, 0.04211683, "- N/A -   "
38.67, 1634.422, 0.06457059, NaN, NaN, NaN, 0.0299091, "- N/A -   "
38.89, 1643.6, 0.0649149, NaN, NaN, NaN, 0.0396753, "- N/A -   "
39.11, 1653.26, 0.0652759, NaN, NaN, NaN, 0.0433376, "- N/A -   "
39.33, 1664.12, 0.06567296, NaN, NaN, NaN, 0.0286883, "- N/A -   "
39.55, 1673.66, 0.0660228, NaN, NaN, NaN, 0.03601294, "- N/A -   "
39.77, 1682.719, 0.06636715, NaN, NaN, NaN, 0.04577916, "- N/A -   "
39.99, 1693.69, 0.066767, NaN, NaN, NaN, 0.0323506, "- N/A -   "
40.163, 1701.56, 0.0670586, NaN, NaN, NaN, 0.03112983, "- N/A -   "