File: 2_Tensile_Data/Hamel_ForceTest_Bolt10_Test8.csv
Time, Load (lb), Position (in), AxialStrain (in), TransverseStrain (in), Auxiliary (), Control Out (V), Stress (psi)
0.0, 9.671693, 0.0, NaN, NaN, NaN, -0.007935055, "- N/A -   "
0.01, 9.671693, 0.0, NaN, NaN, NaN, -6.103888E-4, "- N/A -   "
0.02, 9.671693, 0.0, NaN, NaN, NaN, 0.006714277, "- N/A -   "
0.03, 9.78964, 0.0, NaN, NaN, NaN, 0.0213636, "- N/A -   "
0.04, 9.671693, 5.553504E-6, NaN, NaN, NaN, 0.0384545, "- N/A -   "
0.05, 9.907588, 1.38838e-05, NaN, NaN, NaN, 0.0543246, "- N/A -   "
0.06, 10.1435, 2.77675e-05, NaN, NaN, NaN, 0.06775316, "- N/A -   "
0.07, 10.26143, 4.99815e-05, NaN, NaN, NaN, 0.07874016, "- N/A -   "
0.08, 10.6153, 7.49723E-5, NaN, NaN, NaN, 0.0872856, "- N/A -   "
0.09, 10.9691, 9.99631e-05, NaN, NaN, NaN, 0.09461027, "- N/A -   "
0.1, 11.323, 0.000130507, NaN, NaN, NaN, 0.09949338, "- N/A -   "
0.11, 11.7947, 0.000158275, NaN, NaN, NaN, 0.09338949, "- N/A -   "
0.12, 12.0306, 0.000188819, NaN, NaN, NaN, 0.0872856, "- N/A -   "
0.13, 12.3845, 0.000216587, NaN, NaN, NaN, 0.08240249, "- N/A -   "
0.14, 12.7383, 2.415774E-4, NaN, NaN, NaN, 0.07874016, "- N/A -   "
0.15, 13.09217, 0.000269345, NaN, NaN, NaN, 0.07385705, "- N/A -   "
0.16, 13.446, 0.000291559, NaN, NaN, NaN, 0.07141549, "- N/A -   "
0.17, 13.6819, 0.000313773, NaN, NaN, NaN, 0.0689739, "- N/A -   "
0.18, 13.7999, 0.00033321, NaN, NaN, NaN, 0.06775316, "- N/A -   "
0.19, 14.1537, 0.000352647, NaN, NaN, NaN, 0.06653238, "- N/A -   "
0.2, 14.3896, 0.000372085, NaN, NaN, NaN, 0.0653116, "- N/A -   "
0.21, 14.6255, 0.000391522, NaN, NaN, NaN, 0.0640908, "- N/A -   "
0.22, 14.8614, 0.000410959, NaN, NaN, NaN, 0.06287005, "- N/A -   "
0.23, 15.0973, 0.000430397, NaN, NaN, NaN, 0.06164927, "- N/A -   "
0.24, 15.2152, 0.000449834, NaN, NaN, NaN, 0.0604285, "- N/A -   "
0.25, 15.4511, 0.000469271, NaN, NaN, NaN, 0.0592077, "- N/A -   "
0.26, 15.805, 0.000485932, NaN, NaN, NaN, 0.0592077, "- N/A -   "
0.27, 15.805, 5.053688E-4, NaN, NaN, NaN, 0.0579869, "- N/A -   "
0.28, 16.1588, 5.248061E-4, NaN, NaN, NaN, 0.05676616, "- N/A -   "
0.29, 16.3947, 5.442434E-4, NaN, NaN, NaN, 0.0555454, "- N/A -   "
0.3, 16.6306, 5.636806E-4, NaN, NaN, NaN, 0.0543246, "- N/A -   "
0.31, 16.86649, 5.858946E-4, NaN, NaN, NaN, 0.0531038, "- N/A -   "
0.32, 17.1024, 0.000602555, NaN, NaN, NaN, 0.05188305, "- N/A -   "
0.33, 17.4562, 0.000624769, NaN, NaN, NaN, 0.0494415, "- N/A -   "
0.34, 17.5742, 6.442064E-4, NaN, NaN, NaN, 0.0482207, "- N/A -   "
0.35, 17.8101, 6.636437E-4, NaN, NaN, NaN, 0.04699994, "- N/A -   "
0.36, 18.046, 6.858577E-4, NaN, NaN, NaN, 0.04577916, "- N/A -   "
0.37, 18.16391, 7.025182E-4, NaN, NaN, NaN, 0.0445584, "- N/A -   "
0.38, 18.3998, 7.191787E-4, NaN, NaN, NaN, 0.0445584, "- N/A -   "
0.39, 18.6357, 7.38616E-4, NaN, NaN, NaN, 0.0433376, "- N/A -   "
0.4, 18.8716, 0.000758053, NaN, NaN, NaN, 0.04211683, "- N/A -   "
0.41, 19.1075, 0.000774714, NaN, NaN, NaN, 0.04211683, "- N/A -   "
0.42, 19.3434, 0.000794151, NaN, NaN, NaN, 0.04089605, "- N/A -   "
0.43, 19.57928, 0.000813588, NaN, NaN, NaN, 0.0396753, "- N/A -   "
0.44, 19.6972, 0.000833026, NaN, NaN, NaN, 0.0384545, "- N/A -   "
0.45, 19.9331, 0.000849686, NaN, NaN, NaN, 0.0384545, "- N/A -   "
0.46, 20.169, 8.635698E-4, NaN, NaN, NaN, 0.0396753, "- N/A -   "
0.47, 20.287, 8.830071E-4, NaN, NaN, NaN, 0.0384545, "- N/A -   "
0.48, 20.52286, 0.000899668, NaN, NaN, NaN, 0.0384545, "- N/A -   "
0.54, 21.7023, 0.00100796, NaN, NaN, NaN, 0.0347922, "- N/A -   "
0.6, 22.9998, 0.00111348, NaN, NaN, NaN, 0.0323506, "- N/A -   "
0.66, 24.29718, 0.00121622, NaN, NaN, NaN, 0.03112983, "- N/A -   "
0.72, 25.3587, 0.00131063, NaN, NaN, NaN, 0.0335714, "- N/A -   "
0.78, 26.5382, 0.001399483, NaN, NaN, NaN, 0.0384545, "- N/A -   "
0.84, 27.5997, 0.00149112, NaN, NaN, NaN, 0.04211683, "- N/A -   "
0.9, 28.89713, 0.00158553, NaN, NaN, NaN, 0.0445584, "- N/A -   "
0.96, 30.1946, 0.00168827, NaN, NaN, NaN, 0.0433376, "- N/A -   "
1.02, 31.6099, 0.00179934, NaN, NaN, NaN, 0.0396753, "- N/A -   "
1.08, 33.1432, 0.00191041, NaN, NaN, NaN, 0.0335714, "- N/A -   "
1.14, 34.55861, 0.0020187, NaN, NaN, NaN, 0.0299091, "- N/A -   "
1.2, 36.0919, 0.002126992, NaN, NaN, NaN, 0.0262467, "- N/A -   "
1.26, 37.3893, 0.0022214, NaN, NaN, NaN, 0.0286883, "- N/A -   "
1.32, 38.5688, 0.00230748, NaN, NaN, NaN, 0.0347922, "- N/A -   "
1.38, 39.8662, 0.00240189, NaN, NaN, NaN, 0.0372337, "- N/A -   "
1.44, 41.04572, 0.00249908, NaN, NaN, NaN, 0.0384545, "- N/A -   "
1.5, 42.4611, 0.00259349, NaN, NaN, NaN, 0.04089605, "- N/A -   "
1.56, 43.75851, 0.0026879, NaN, NaN, NaN, 0.0433376, "- N/A -   "
1.62, 45.05593, 0.002785082, NaN, NaN, NaN, 0.0445584, "- N/A -   "
1.68, 46.5893, 0.00289338, NaN, NaN, NaN, 0.04089605, "- N/A -   "
1.74, 48.3585, 0.003007222, NaN, NaN, NaN, 0.0347922, "- N/A -   "
1.8, 49.7738, 0.003112739, NaN, NaN, NaN, 0.0335714, "- N/A -   "
1.86, 51.1892, 0.00320715, NaN, NaN, NaN, 0.0347922, "- N/A -   "
1.92, 52.48662, 0.003301558, NaN, NaN, NaN, 0.0384545, "- N/A -   "
1.98, 54.0199, 0.00340152, NaN, NaN, NaN, 0.0372337, "- N/A -   "
2.04, 55.55326, 0.00351259, NaN, NaN, NaN, 0.0335714, "- N/A -   "
2.1, 56.9686, 0.003607, NaN, NaN, NaN, 0.0347922, "- N/A -   "
2.16, 58.26605, 0.00369863, NaN, NaN, NaN, 0.0396753, "- N/A -   "
2.22, 59.79937, 0.00379582, NaN, NaN, NaN, 0.0396753, "- N/A -   "
2.28, 61.2147, 0.00389301, NaN, NaN, NaN, 0.04089605, "- N/A -   "
2.34, 62.866, 0.00399852, NaN, NaN, NaN, 0.0384545, "- N/A -   "
2.4, 64.5173, 0.00410959, NaN, NaN, NaN, 0.0335714, "- N/A -   "
2.46, 66.16853, 0.004206779, NaN, NaN, NaN, 0.0347922, "- N/A -   "
2.52, 67.5839, 0.004306742, NaN, NaN, NaN, 0.0347922, "- N/A -   "
2.58, 69.23517, 0.00441504, NaN, NaN, NaN, 0.0323506, "- N/A -   "
2.64, 70.6505, 0.004512222, NaN, NaN, NaN, 0.0323506, "- N/A -   "
2.7, 72.1838, 0.004609408, NaN, NaN, NaN, 0.0335714, "- N/A -   "
2.76, 73.83511, 0.004703818, NaN, NaN, NaN, 0.03601294, "- N/A -   "
2.82, 75.48638, 0.004809334, NaN, NaN, NaN, 0.0335714, "- N/A -   "
2.88, 76.90175, 0.00490097, NaN, NaN, NaN, 0.0372337, "- N/A -   "
2.94, 78.4351, 0.004995377, NaN, NaN, NaN, 0.0396753, "- N/A -   "
3, 79.85043, 0.005084233, NaN, NaN, NaN, 0.0445584, "- N/A -   "
3.06, 81.61965, 0.00518975, NaN, NaN, NaN, 0.04211683, "- N/A -   "
3.12, 83.38886, 0.005295266, NaN, NaN, NaN, 0.0396753, "- N/A -   "
3.18, 85.15807, 0.00540911, NaN, NaN, NaN, 0.0335714, "- N/A -   "
3.24, 86.80934, 0.00550908, NaN, NaN, NaN, 0.0347922, "- N/A -   "
3.3, 88.34265, 0.00560626, NaN, NaN, NaN, 0.0347922, "- N/A -   "
3.36, 90.11186, 0.00571178, NaN, NaN, NaN, 0.0335714, "- N/A -   "
3.42, 91.88108, 0.005820072, NaN, NaN, NaN, 0.0286883, "- N/A -   "
3.48, 93.53234, 0.005914482, NaN, NaN, NaN, 0.03112983, "- N/A -   "
3.54, 94.7118, 0.00600056, NaN, NaN, NaN, 0.0372337, "- N/A -   "
3.6, 96.36309, 0.006089417, NaN, NaN, NaN, 0.04211683, "- N/A -   "
3.66, 97.77845, 0.00618105, NaN, NaN, NaN, 0.0482207, "- N/A -   "
3.72, 99.7836, 0.006289343, NaN, NaN, NaN, 0.0433376, "- N/A -   "
3.78, 101.671, 0.006405967, NaN, NaN, NaN, 0.03601294, "- N/A -   "
3.84, 103.44, 0.00651148, NaN, NaN, NaN, 0.0335714, "- N/A -   "
3.9, 105.091, 0.006608669, NaN, NaN, NaN, 0.0347922, "- N/A -   "
3.96, 107.0963, 0.00672252, NaN, NaN, NaN, 0.0286883, "- N/A -   "
4.02, 108.748, 0.006825256, NaN, NaN, NaN, 0.0274675, "- N/A -   "
4.08, 110.399, 0.006919666, NaN, NaN, NaN, 0.0299091, "- N/A -   "
4.14, 111.932, 0.007005745, NaN, NaN, NaN, 0.03601294, "- N/A -   "
4.2, 113.348, 0.007094601, NaN, NaN, NaN, 0.04089605, "- N/A -   "
4.26, 114.881, 0.00718346, NaN, NaN, NaN, 0.04577916, "- N/A -   "
4.32, 116.65, 0.007288974, NaN, NaN, NaN, 0.0445584, "- N/A -   "
4.38, 118.419, 0.00738616, NaN, NaN, NaN, 0.0445584, "- N/A -   "
4.44, 120.306, 0.00749445, NaN, NaN, NaN, 0.04211683, "- N/A -   "
4.5, 122.429, 0.0076083, NaN, NaN, NaN, 0.0347922, "- N/A -   "
4.56, 124.199, 0.00771937, NaN, NaN, NaN, 0.0299091, "- N/A -   "
4.62, 125.9679, 0.007816557, NaN, NaN, NaN, 0.03112983, "- N/A -   "
4.68, 127.501, 0.007910966, NaN, NaN, NaN, 0.0335714, "- N/A -   "
4.74, 129.152, 0.008002599, NaN, NaN, NaN, 0.0372337, "- N/A -   "
4.8, 131.04, 0.008099785, NaN, NaN, NaN, 0.0384545, "- N/A -   "
4.86, 132.9268, 0.008202525, NaN, NaN, NaN, 0.0384545, "- N/A -   "
4.92, 134.578, 0.008294158, NaN, NaN, NaN, 0.04211683, "- N/A -   "
4.98, 136.465, 0.008388568, NaN, NaN, NaN, 0.0433376, "- N/A -   "
5.04, 138.352, 0.008485754, NaN, NaN, NaN, 0.0445584, "- N/A -   "
5.1, 140.475, 0.008599601, NaN, NaN, NaN, 0.0384545, "- N/A -   "
5.16, 142.8344, 0.008719001, NaN, NaN, NaN, 0.0299091, "- N/A -   "
5.22, 144.8395, 0.00881896, NaN, NaN, NaN, 0.0299091, "- N/A -   "
5.28, 146.491, 0.008910596, NaN, NaN, NaN, 0.0347922, "- N/A -   "
5.34, 148.378, 0.009007784, NaN, NaN, NaN, 0.0347922, "- N/A -   "
5.4, 150.383, 0.009107746, NaN, NaN, NaN, 0.0347922, "- N/A -   "
5.46, 152.27, 0.009213263, NaN, NaN, NaN, 0.0323506, "- N/A -   "
5.52, 154.0394, 0.009302119, NaN, NaN, NaN, 0.0372337, "- N/A -   "
5.58, 155.809, 0.009393752, NaN, NaN, NaN, 0.04089605, "- N/A -   "
5.64, 157.696, 0.009488161, NaN, NaN, NaN, 0.0433376, "- N/A -   "
5.7, 159.583, 0.009596455, NaN, NaN, NaN, 0.0396753, "- N/A -   "
5.76, 161.4701, 0.009696417, NaN, NaN, NaN, 0.04089605, "- N/A -   "
5.82, 163.829, 0.009807487, NaN, NaN, NaN, 0.0347922, "- N/A -   "
5.88, 165.7162, 0.00990745, NaN, NaN, NaN, 0.0347922, "- N/A -   "
5.94, 167.7213, 0.0100074, NaN, NaN, NaN, 0.0347922, "- N/A -   "
6, 169.726, 0.01011293, NaN, NaN, NaN, 0.0323506, "- N/A -   "
6.06, 171.614, 0.0102046, NaN, NaN, NaN, 0.03601294, "- N/A -   "
6.12, 173.383, 0.0103017, NaN, NaN, NaN, 0.0372337, "- N/A -   "
6.18, 175.388, 0.0104045, NaN, NaN, NaN, 0.03601294, "- N/A -   "
6.24, 177.393, 0.01051, NaN, NaN, NaN, 0.0335714, "- N/A -   "
6.3, 179.162, 0.0106016, NaN, NaN, NaN, 0.0372337, "- N/A -   "
6.36, 181.049, 0.010696, NaN, NaN, NaN, 0.0396753, "- N/A -   "
6.42, 182.937, 0.0107905, NaN, NaN, NaN, 0.04211683, "- N/A -   "
6.48, 184.942, 0.0108932, NaN, NaN, NaN, 0.04089605, "- N/A -   "
6.54, 187.419, 0.0110098, NaN, NaN, NaN, 0.0335714, "- N/A -   "
6.6, 189.5416, 0.0111181, NaN, NaN, NaN, 0.0299091, "- N/A -   "
6.66, 191.193, 0.0112097, NaN, NaN, NaN, 0.0335714, "- N/A -   "
6.72, 193.198, 0.0113097, NaN, NaN, NaN, 0.0335714, "- N/A -   "
6.78, 195.5569, 0.0114236, NaN, NaN, NaN, 0.0274675, "- N/A -   "
6.84, 197.562, 0.01152352, NaN, NaN, NaN, 0.0274675, "- N/A -   "
6.9, 199.213, 0.0116124, NaN, NaN, NaN, 0.0323506, "- N/A -   "
6.96, 200.629, 0.0116929, NaN, NaN, NaN, 0.04089605, "- N/A -   "
7.02, 202.398, 0.011779, NaN, NaN, NaN, 0.04699994, "- N/A -   "
7.08, 204.403, 0.0118734, NaN, NaN, NaN, 0.0494415, "- N/A -   "
7.14, 206.644, 0.01198446, NaN, NaN, NaN, 0.0445584, "- N/A -   "
7.2, 209.239, 0.0120983, NaN, NaN, NaN, 0.0384545, "- N/A -   "
7.26, 211.244, 0.0122038, NaN, NaN, NaN, 0.03601294, "- N/A -   "
7.32, 213.249, 0.0123121, NaN, NaN, NaN, 0.0323506, "- N/A -   "
7.38, 215.608, 0.01242041, NaN, NaN, NaN, 0.0286883, "- N/A -   "
7.44, 217.613, 0.0125204, NaN, NaN, NaN, 0.0286883, "- N/A -   "
7.5, 219.5, 0.0126148, NaN, NaN, NaN, 0.03112983, "- N/A -   "
7.56, 221.387, 0.0127036, NaN, NaN, NaN, 0.03601294, "- N/A -   "
7.62, 223.275, 0.012798, NaN, NaN, NaN, 0.0384545, "- N/A -   "
7.68, 225.162, 0.0128952, NaN, NaN, NaN, 0.0396753, "- N/A -   "
7.74, 227.167, 0.0129924, NaN, NaN, NaN, 0.04089605, "- N/A -   "
7.8, 229.172, 0.0130868, NaN, NaN, NaN, 0.0433376, "- N/A -   "
7.86, 231.295, 0.0131923, NaN, NaN, NaN, 0.04089605, "- N/A -   "
7.92, 233.89, 0.0133117, NaN, NaN, NaN, 0.0323506, "- N/A -   "
7.98, 236.131, 0.01342, NaN, NaN, NaN, 0.0286883, "- N/A -   "
8.04, 238.136, 0.0135172, NaN, NaN, NaN, 0.0299091, "- N/A -   "
8.1, 240.259, 0.0136144, NaN, NaN, NaN, 0.03112983, "- N/A -   "
8.16, 242.2641, 0.0137144, NaN, NaN, NaN, 0.0335714, "- N/A -   "
8.22, 244.503, 0.01381434, NaN, NaN, NaN, 0.0323506, "- N/A -   "
8.28, 246.27, 0.013906, NaN, NaN, NaN, 0.03601294, "- N/A -   "
8.29, 246.506, 0.0139171, NaN, NaN, NaN, 0.0384545, "- N/A -   "
8.3, 246.86, 0.013931, NaN, NaN, NaN, 0.0396753, "- N/A -   "
8.31, 247.095, 0.0139448, NaN, NaN, NaN, 0.04089605, "- N/A -   "
8.44, 251.219, 0.0141476, NaN, NaN, NaN, 0.04699994, "- N/A -   "
8.57, 256.286, 0.0143891, NaN, NaN, NaN, 0.03601294, "- N/A -   "
8.7, 260.6452, 0.0146029, NaN, NaN, NaN, 0.0372337, "- N/A -   "
8.83, 265.358, 0.0148306, NaN, NaN, NaN, 0.0323506, "- N/A -   "
8.96, 269.482, 0.0150361, NaN, NaN, NaN, 0.0372337, "- N/A -   "
9.09, 273.7239, 0.0152444, NaN, NaN, NaN, 0.04089605, "- N/A -   "
9.22, 278.0835, 0.0154693, NaN, NaN, NaN, 0.0372337, "- N/A -   "
9.35, 282.325, 0.0156859, NaN, NaN, NaN, 0.0372337, "- N/A -   "
9.48, 287.038, 0.01591634, NaN, NaN, NaN, 0.0323506, "- N/A -   "
9.61, 291.28, 0.0161302, NaN, NaN, NaN, 0.0323506, "- N/A -   "
9.74, 295.05, 0.0163273, NaN, NaN, NaN, 0.04089605, "- N/A -   "
9.87, 299.292, 0.01653278, NaN, NaN, NaN, 0.04577916, "- N/A -   "
10, 304.123, 0.0167744, NaN, NaN, NaN, 0.0347922, "- N/A -   "
10.13, 308.4826, 0.0169937, NaN, NaN, NaN, 0.0335714, "- N/A -   "
10.26, 312.96, 0.0172159, NaN, NaN, NaN, 0.03112983, "- N/A -   "
10.39, 316.848, 0.01741301, NaN, NaN, NaN, 0.0396753, "- N/A -   "
10.52, 320.9722, 0.0176157, NaN, NaN, NaN, 0.04577916, "- N/A -   "
10.65, 325.921, 0.01785729, NaN, NaN, NaN, 0.0347922, "- N/A -   "
10.78, 330.752, 0.0180905, NaN, NaN, NaN, 0.0274675, "- N/A -   "
10.91, 334.9935, 0.01830157, NaN, NaN, NaN, 0.0299091, "- N/A -   "
11.04, 338.764, 0.01849039, NaN, NaN, NaN, 0.04211683, "- N/A -   "
11.17, 343.2413, 0.0187042, NaN, NaN, NaN, 0.0445584, "- N/A -   "
11.3, 347.954, 0.01893467, NaN, NaN, NaN, 0.0372337, "- N/A -   "
11.43, 352.903, 0.0191707, NaN, NaN, NaN, 0.0286883, "- N/A -   "
11.56, 357.2626, 0.0193734, NaN, NaN, NaN, 0.0347922, "- N/A -   "
11.69, 361.504, 0.0195789, NaN, NaN, NaN, 0.0396753, "- N/A -   "
11.82, 365.864, 0.0197871, NaN, NaN, NaN, 0.0433376, "- N/A -   "
11.95, 371.048, 0.02002871, NaN, NaN, NaN, 0.0323506, "- N/A -   "
12.08, 375.643, 0.0202453, NaN, NaN, NaN, 0.0323506, "- N/A -   "
12.21, 380.003, 0.0204591, NaN, NaN, NaN, 0.0335714, "- N/A -   "
12.34, 384.716, 0.02067014, NaN, NaN, NaN, 0.03601294, "- N/A -   "
12.47, 389.193, 0.0208784, NaN, NaN, NaN, 0.0396753, "- N/A -   "
12.6, 393.7887, 0.02109776, NaN, NaN, NaN, 0.0384545, "- N/A -   "
12.73, 398.62, 0.0213171, NaN, NaN, NaN, 0.0384545, "- N/A -   "
12.86, 403.4504, 0.0215448, NaN, NaN, NaN, 0.0335714, "- N/A -   "
12.99, 408.046, 0.0217586, NaN, NaN, NaN, 0.0347922, "- N/A -   "
13.12, 412.641, 0.0219697, NaN, NaN, NaN, 0.0372337, "- N/A -   "
13.25, 417.118, 0.0221751, NaN, NaN, NaN, 0.0433376, "- N/A -   "
13.38, 422.3026, 0.0224028, NaN, NaN, NaN, 0.0372337, "- N/A -   "
13.51, 426.78, 0.0226166, NaN, NaN, NaN, 0.0384545, "- N/A -   "
13.64, 432.2, 0.0228582, NaN, NaN, NaN, 0.0274675, "- N/A -   "
13.77, 436.442, 0.0230526, NaN, NaN, NaN, 0.0372337, "- N/A -   "
13.9, 440.566, 0.0232497, NaN, NaN, NaN, 0.04577916, "- N/A -   "
14.03, 445.986, 0.0234858, NaN, NaN, NaN, 0.0372337, "- N/A -   "
14.16, 450.934, 0.0237162, NaN, NaN, NaN, 0.03112983, "- N/A -   "
14.29, 455.7652, 0.0239328, NaN, NaN, NaN, 0.03112983, "- N/A -   "
14.42, 460.2426, 0.0241327, NaN, NaN, NaN, 0.0396753, "- N/A -   "
14.55, 464.72, 0.02433823, NaN, NaN, NaN, 0.0433376, "- N/A -   "
14.68, 470.0222, 0.0245659, NaN, NaN, NaN, 0.0384545, "- N/A -   "
14.81, 475.442, 0.0248047, NaN, NaN, NaN, 0.0286883, "- N/A -   "
14.94, 480.037, 0.0250102, NaN, NaN, NaN, 0.0335714, "- N/A -   "
15.07, 484.75, 0.0252212, NaN, NaN, NaN, 0.03601294, "- N/A -   "
15.2, 489.346, 0.0254212, NaN, NaN, NaN, 0.0433376, "- N/A -   "
15.33, 494.53, 0.0256461, NaN, NaN, NaN, 0.0396753, "- N/A -   "
15.46, 500.068, 0.0258821, NaN, NaN, NaN, 0.03112983, "- N/A -   "
15.59, 504.663, 0.0260904, NaN, NaN, NaN, 0.0347922, "- N/A -   "
15.72, 509.9652, 0.0263097, NaN, NaN, NaN, 0.0335714, "- N/A -   "
15.85, 514.21, 0.0265041, NaN, NaN, NaN, 0.0433376, "- N/A -   "
15.98, 519.532, 0.0267262, NaN, NaN, NaN, 0.04211683, "- N/A -   "
16.11, 524.855, 0.0269595, NaN, NaN, NaN, 0.0347922, "- N/A -   "
16.24, 530.1776, 0.0271816, NaN, NaN, NaN, 0.03112983, "- N/A -   "
16.37, 535.0271, 0.02738988, NaN, NaN, NaN, 0.0347922, "- N/A -   "
16.5, 539.9949, 0.0276037, NaN, NaN, NaN, 0.03601294, "- N/A -   "
16.63, 544.8444, 0.02780917, NaN, NaN, NaN, 0.04089605, "- N/A -   "
16.76, 550.285, 0.0280313, NaN, NaN, NaN, 0.0384545, "- N/A -   "
16.89, 555.608, 0.02825345, NaN, NaN, NaN, 0.03601294, "- N/A -   "
17.02, 561.1672, 0.0284867, NaN, NaN, NaN, 0.0299091, "- N/A -   "
17.15, 566.017, 0.0286894, NaN, NaN, NaN, 0.0347922, "- N/A -   "
17.28, 570.511, 0.028881, NaN, NaN, NaN, 0.04699994, "- N/A -   "
17.41, 576.3071, 0.02911702, NaN, NaN, NaN, 0.0384545, "- N/A -   "
17.54, 581.748, 0.0293475, NaN, NaN, NaN, 0.0323506, "- N/A -   "
17.67, 587.189, 0.0295724, NaN, NaN, NaN, 0.0286883, "- N/A -   "
17.8, 591.92, 0.0297696, NaN, NaN, NaN, 0.0372337, "- N/A -   "
17.93, 596.6514, 0.0299667, NaN, NaN, NaN, 0.04577916, "- N/A -   "
18.06, 602.092, 0.0301916, NaN, NaN, NaN, 0.04211683, "- N/A -   "
18.19, 607.8881, 0.0304304, NaN, NaN, NaN, 0.0323506, "- N/A -   "
18.32, 613.211, 0.03064701, NaN, NaN, NaN, 0.0323506, "- N/A -   "
[...]
28.78, 1054.38, 0.04806835, NaN, NaN, NaN, 0.0372337, "- N/A -   "
28.85, 1057, 0.04817109, NaN, NaN, NaN, 0.0433376, "- N/A -   "
28.92, 1059.99, 0.04828216, NaN, NaN, NaN, 0.04577916, "- N/A -   "
28.99, 1063.56, 0.0484154, NaN, NaN, NaN, 0.0384545, "- N/A -   "
29.06, 1066.9, 0.0485432, NaN, NaN, NaN, 0.0335714, "- N/A -   "
29.13, 1069.76, 0.0486598, NaN, NaN, NaN, 0.0335714, "- N/A -   "
29.2, 1072.626, 0.04877087, NaN, NaN, NaN, 0.0372337, "- N/A -   "
29.27, 1075.73, 0.0488847, NaN, NaN, NaN, 0.0384545, "- N/A -   "
29.34, 1078.95, 0.04900689, NaN, NaN, NaN, 0.0347922, "- N/A -   "
29.41, 1081.93, 0.049118, NaN, NaN, NaN, 0.0384545, "- N/A -   "
29.48, 1084.67, 0.04922348, NaN, NaN, NaN, 0.04211683, "- N/A -   "
29.55, 1087.89, 0.0493457, NaN, NaN, NaN, 0.0396753, "- N/A -   "
29.62, 1091.11, 0.04946228, NaN, NaN, NaN, 0.0396753, "- N/A -   "
29.69, 1094.21, 0.04958446, NaN, NaN, NaN, 0.0372337, "- N/A -   "
29.76, 1097.19, 0.04970108, NaN, NaN, NaN, 0.0372337, "- N/A -   "
29.83, 1100.41, 0.04982326, NaN, NaN, NaN, 0.03601294, "- N/A -   "
29.9, 1103.63, 0.0499482, NaN, NaN, NaN, 0.03112983, "- N/A -   "
29.97, 1106.85, 0.0500676, NaN, NaN, NaN, 0.0299091, "- N/A -   "
30.04, 1109.83, 0.0501842, NaN, NaN, NaN, 0.0299091, "- N/A -   "
30.11, 1112.814, 0.0502953, NaN, NaN, NaN, 0.0323506, "- N/A -   "
30.18, 1115.56, 0.050398, NaN, NaN, NaN, 0.0384545, "- N/A -   "
30.25, 1118.3, 0.05050634, NaN, NaN, NaN, 0.04211683, "- N/A -   "
30.32, 1121.16, 0.0506146, NaN, NaN, NaN, 0.04577916, "- N/A -   "
30.39, 1124.38, 0.0507368, NaN, NaN, NaN, 0.0433376, "- N/A -   "
30.46, 1128.08, 0.05087287, NaN, NaN, NaN, 0.03601294, "- N/A -   "
30.53, 1131.18, 0.0509923, NaN, NaN, NaN, 0.0335714, "- N/A -   "
30.6, 1134.16, 0.0511061, NaN, NaN, NaN, 0.0347922, "- N/A -   "
30.67, 1137.499, 0.05123107, NaN, NaN, NaN, 0.03112983, "- N/A -   "
30.74, 1140.6, 0.0513505, NaN, NaN, NaN, 0.03112983, "- N/A -   "
30.81, 1143.22, 0.0514532, NaN, NaN, NaN, 0.0384545, "- N/A -   "
30.88, 1145.73, 0.0515504, NaN, NaN, NaN, 0.04577916, "- N/A -   "
30.95, 1148.828, 0.0516642, NaN, NaN, NaN, 0.04699994, "- N/A -   "
31.02, 1152.17, 0.0517892, NaN, NaN, NaN, 0.0433376, "- N/A -   "
31.09, 1155.51, 0.05191693, NaN, NaN, NaN, 0.0384545, "- N/A -   "
31.16, 1158.85, 0.0520447, NaN, NaN, NaN, 0.0335714, "- N/A -   "
31.23, 1162.18, 0.0521696, NaN, NaN, NaN, 0.0299091, "- N/A -   "
31.3, 1165.28, 0.0522918, NaN, NaN, NaN, 0.0274675, "- N/A -   "
31.37, 1168.27, 0.0524029, NaN, NaN, NaN, 0.0299091, "- N/A -   "
31.44, 1171.13, 0.0525084, NaN, NaN, NaN, 0.0347922, "- N/A -   "
31.51, 1173.39, 0.0526056, NaN, NaN, NaN, 0.0433376, "- N/A -   "
31.58, 1176.61, 0.0527194, NaN, NaN, NaN, 0.0445584, "- N/A -   "
31.65, 1179.71, 0.05283881, NaN, NaN, NaN, 0.0433376, "- N/A -   "
31.72, 1182.81, 0.0529527, NaN, NaN, NaN, 0.0445584, "- N/A -   "
31.79, 1186.15, 0.05307761, NaN, NaN, NaN, 0.04089605, "- N/A -   "
31.86, 1189.61, 0.0532109, NaN, NaN, NaN, 0.0347922, "- N/A -   "
31.93, 1192.71, 0.0533275, NaN, NaN, NaN, 0.0335714, "- N/A -   "
32, 1195.57, 0.05343581, NaN, NaN, NaN, 0.0384545, "- N/A -   "
32.07, 1198.79, 0.0535552, NaN, NaN, NaN, 0.03601294, "- N/A -   "
32.14, 1202.13, 0.0536746, NaN, NaN, NaN, 0.0347922, "- N/A -   "
32.21, 1204.638, 0.0537774, NaN, NaN, NaN, 0.04089605, "- N/A -   "
32.28, 1207.38, 0.0538856, NaN, NaN, NaN, 0.04577916, "- N/A -   "
32.35, 1210.48, 0.0539995, NaN, NaN, NaN, 0.04577916, "- N/A -   "
32.42, 1214.54, 0.0541411, NaN, NaN, NaN, 0.0347922, "- N/A -   "
32.49, 1217.87, 0.0542688, NaN, NaN, NaN, 0.0299091, "- N/A -   "
32.56, 1220.74, 0.0543799, NaN, NaN, NaN, 0.0323506, "- N/A -   "
32.63, 1223.599, 0.05449098, NaN, NaN, NaN, 0.0347922, "- N/A -   "
32.7, 1226.938, 0.0546132, NaN, NaN, NaN, 0.0323506, "- N/A -   "
32.77, 1230.16, 0.0547326, NaN, NaN, NaN, 0.03112983, "- N/A -   "
32.84, 1232.78, 0.05483807, NaN, NaN, NaN, 0.03601294, "- N/A -   "
32.91, 1235.64, 0.0549436, NaN, NaN, NaN, 0.04089605, "- N/A -   "
32.98, 1238.86, 0.05506577, NaN, NaN, NaN, 0.0384545, "- N/A -   "
33.05, 1241.96, 0.05517961, NaN, NaN, NaN, 0.0396753, "- N/A -   "
33.12, 1245.18, 0.05529901, NaN, NaN, NaN, 0.0384545, "- N/A -   "
33.19, 1248.4, 0.0554184, NaN, NaN, NaN, 0.0372337, "- N/A -   "
33.26, 1251.62, 0.05554059, NaN, NaN, NaN, 0.0347922, "- N/A -   "
33.33, 1254.843, 0.05565999, NaN, NaN, NaN, 0.0335714, "- N/A -   "
33.4, 1257.82, 0.05577384, NaN, NaN, NaN, 0.0347922, "- N/A -   "
33.47, 1260.92, 0.05589046, NaN, NaN, NaN, 0.0347922, "- N/A -   "
33.54, 1263.79, 0.05600431, NaN, NaN, NaN, 0.03601294, "- N/A -   "
33.61, 1266.53, 0.0561098, NaN, NaN, NaN, 0.04089605, "- N/A -   "
33.68, 1269.51, 0.05622367, NaN, NaN, NaN, 0.0433376, "- N/A -   "
33.75, 1272.73, 0.0563403, NaN, NaN, NaN, 0.04211683, "- N/A -   "
33.82, 1276.31, 0.0564708, NaN, NaN, NaN, 0.03601294, "- N/A -   "
33.89, 1279.77, 0.05660131, NaN, NaN, NaN, 0.0299091, "- N/A -   "
33.96, 1282.51, 0.0567096, NaN, NaN, NaN, 0.0335714, "- N/A -   "
34.03, 1285.73, 0.056829, NaN, NaN, NaN, 0.0323506, "- N/A -   "
34.1, 1289.07, 0.056954, NaN, NaN, NaN, 0.0299091, "- N/A -   "
34.17, 1292.05, 0.0570678, NaN, NaN, NaN, 0.0299091, "- N/A -   "
34.24, 1294.67, 0.0571705, NaN, NaN, NaN, 0.03601294, "- N/A -   "
34.31, 1297.18, 0.0572677, NaN, NaN, NaN, 0.0445584, "- N/A -   "
34.38, 1300.16, 0.0573816, NaN, NaN, NaN, 0.04699994, "- N/A -   "
34.45, 1303.74, 0.0575121, NaN, NaN, NaN, 0.0396753, "- N/A -   "
34.52, 1307.08, 0.05763426, NaN, NaN, NaN, 0.0372337, "- N/A -   "
34.59, 1310.295, 0.0577592, NaN, NaN, NaN, 0.0335714, "- N/A -   "
34.66, 1313.515, 0.0578814, NaN, NaN, NaN, 0.03112983, "- N/A -   "
34.73, 1316.62, 0.057998, NaN, NaN, NaN, 0.03112983, "- N/A -   "
34.8, 1319.72, 0.05811464, NaN, NaN, NaN, 0.03112983, "- N/A -   "
34.87, 1322.22, 0.0582174, NaN, NaN, NaN, 0.0372337, "- N/A -   "
34.94, 1324.844, 0.0583173, NaN, NaN, NaN, 0.0445584, "- N/A -   "
35.01, 1327.94, 0.0584367, NaN, NaN, NaN, 0.0445584, "- N/A -   "
35.08, 1331.04, 0.0585534, NaN, NaN, NaN, 0.0433376, "- N/A -   "
35.15, 1334.5, 0.0586811, NaN, NaN, NaN, 0.0384545, "- N/A -   "
35.22, 1338.2, 0.0588172, NaN, NaN, NaN, 0.03112983, "- N/A -   "
35.29, 1341.54, 0.0589393, NaN, NaN, NaN, 0.0274675, "- N/A -   "
35.36, 1344.52, 0.059056, NaN, NaN, NaN, 0.0286883, "- N/A -   "
35.43, 1347.38, 0.0591615, NaN, NaN, NaN, 0.0335714, "- N/A -   "
35.5, 1350.36, 0.05927532, NaN, NaN, NaN, 0.03601294, "- N/A -   "
35.57, 1353.35, 0.0593892, NaN, NaN, NaN, 0.03601294, "- N/A -   "
35.64, 1355.85, 0.0594891, NaN, NaN, NaN, 0.0433376, "- N/A -   "
35.71, 1358.71, 0.0595974, NaN, NaN, NaN, 0.0482207, "- N/A -   "
35.78, 1362.05, 0.0597168, NaN, NaN, NaN, 0.04577916, "- N/A -   "
35.85, 1365.99, 0.05985844, NaN, NaN, NaN, 0.0347922, "- N/A -   "
35.92, 1369.09, 0.05997784, NaN, NaN, NaN, 0.0335714, "- N/A -   "
35.99, 1371.95, 0.06008613, NaN, NaN, NaN, 0.0372337, "- N/A -   "
36.06, 1375.05, 0.06020276, NaN, NaN, NaN, 0.0372337, "- N/A -   "
36.13, 1378.27, 0.0603305, NaN, NaN, NaN, 0.0335714, "- N/A -   "
36.2, 1381.37, 0.0604416, NaN, NaN, NaN, 0.0347922, "- N/A -   "
36.27, 1383.99, 0.0605471, NaN, NaN, NaN, 0.0396753, "- N/A -   "
36.34, 1386.85, 0.0606554, NaN, NaN, NaN, 0.0433376, "- N/A -   "
36.41, 1390.194, 0.0607775, NaN, NaN, NaN, 0.04211683, "- N/A -   "
36.48, 1393.53, 0.0609025, NaN, NaN, NaN, 0.0372337, "- N/A -   "
36.55, 1396.75, 0.0610219, NaN, NaN, NaN, 0.03601294, "- N/A -   "
36.62, 1399.73, 0.0611385, NaN, NaN, NaN, 0.03601294, "- N/A -   "
36.69, 1403.07, 0.0612635, NaN, NaN, NaN, 0.0323506, "- N/A -   "
36.76, 1406.05, 0.06137732, NaN, NaN, NaN, 0.0335714, "- N/A -   "
36.83, 1409.51, 0.0614995, NaN, NaN, NaN, 0.03112983, "- N/A -   "
36.9, 1412.37, 0.0616133, NaN, NaN, NaN, 0.0323506, "- N/A -   "
36.97, 1415.36, 0.0617272, NaN, NaN, NaN, 0.0347922, "- N/A -   "
37.04, 1417.98, 0.0618272, NaN, NaN, NaN, 0.04089605, "- N/A -   "
37.11, 1420.6, 0.06192712, NaN, NaN, NaN, 0.0482207, "- N/A -   "
37.18, 1423.82, 0.0620493, NaN, NaN, NaN, 0.04577916, "- N/A -   "
37.25, 1427.639, 0.0621798, NaN, NaN, NaN, 0.0396753, "- N/A -   "
37.32, 1430.86, 0.0623075, NaN, NaN, NaN, 0.0347922, "- N/A -   "
37.39, 1433.84, 0.06242416, NaN, NaN, NaN, 0.0347922, "- N/A -   "
37.46, 1437.3, 0.0625491, NaN, NaN, NaN, 0.03112983, "- N/A -   "
37.53, 1440.52, 0.06267129, NaN, NaN, NaN, 0.0299091, "- N/A -   "
37.6, 1443.26, 0.06277403, NaN, NaN, NaN, 0.0347922, "- N/A -   "
37.67, 1445.88, 0.06287399, NaN, NaN, NaN, 0.04211683, "- N/A -   "
37.74, 1448.51, 0.06298228, NaN, NaN, NaN, 0.04699994, "- N/A -   "
37.795, 1450.774, 0.06306836, NaN, NaN, NaN, 0.0482207, "- N/A -   "