File: 2_Tensile_Data/Hamel_ForceTest_Bolt7_Test8.csv
Time, Load (lb), Position (in), AxialStrain (in), TransverseStrain (in), Auxiliary (), Control Out (V), Stress (psi)
0.0, 10.26143, 0.0, NaN, NaN, NaN, -0.007935055, "- N/A -   "
0.01, 10.26143, 0.0, NaN, NaN, NaN, -6.103888E-4, "- N/A -   "
0.02, 10.26143, 0.0, NaN, NaN, NaN, 0.006714277, "- N/A -   "
0.03, 10.3794, 0.0, NaN, NaN, NaN, 0.0238052, "- N/A -   "
0.04, 10.26143, 2.776752E-6, NaN, NaN, NaN, 0.04211683, "- N/A -   "
0.05, 10.4973, 1.38838e-05, NaN, NaN, NaN, 0.05676616, "- N/A -   "
0.06, 10.8512, 3.054427E-5, NaN, NaN, NaN, 0.0689739, "- N/A -   "
0.07, 11.323, 4.99815e-05, NaN, NaN, NaN, 0.0799609, "- N/A -   "
0.08, 11.7947, 7.49723E-5, NaN, NaN, NaN, 0.0897272, "- N/A -   "
0.09, 12.3845, 9.99631e-05, NaN, NaN, NaN, 0.09705182, "- N/A -   "
0.1, 12.9742, 0.000130507, NaN, NaN, NaN, 0.100714, "- N/A -   "
0.11, 13.7999, 0.000163828, NaN, NaN, NaN, 0.09461027, "- N/A -   "
0.12, 14.3896, 0.000191596, NaN, NaN, NaN, 0.08850638, "- N/A -   "
0.13, 14.9793, 2.193634E-4, NaN, NaN, NaN, 0.08362327, "- N/A -   "
0.14, 15.4511, 0.000244354, NaN, NaN, NaN, 0.0799609, "- N/A -   "
0.15, 16.0409, 0.000269345, NaN, NaN, NaN, 0.0762986, "- N/A -   "
0.16, 16.6306, 0.000294336, NaN, NaN, NaN, 0.07263627, "- N/A -   "
0.17, 16.9844, 3.165497E-4, NaN, NaN, NaN, 0.07141549, "- N/A -   "
0.18, 17.5742, 0.000335987, NaN, NaN, NaN, 0.0701947, "- N/A -   "
0.19, 17.8101, 0.000355424, NaN, NaN, NaN, 0.0689739, "- N/A -   "
0.2, 18.16391, 3.748615E-4, NaN, NaN, NaN, 0.06653238, "- N/A -   "
0.21, 18.6357, 0.000394299, NaN, NaN, NaN, 0.0653116, "- N/A -   "
0.22, 18.9895, 4.13736E-4, NaN, NaN, NaN, 0.0640908, "- N/A -   "
0.23, 19.4613, 4.331733E-4, NaN, NaN, NaN, 0.06287005, "- N/A -   "
0.24, 19.8152, 0.000449834, NaN, NaN, NaN, 0.06287005, "- N/A -   "
0.25, 20.169, 4.720478E-4, NaN, NaN, NaN, 0.0604285, "- N/A -   "
0.26, 20.6408, 0.000491485, NaN, NaN, NaN, 0.0592077, "- N/A -   "
0.54, 31.1381, 0.00102184, NaN, NaN, NaN, 0.0323506, "- N/A -   "
0.82, 39.8662, 0.00145224, NaN, NaN, NaN, 0.04699994, "- N/A -   "
1.1, 50.83536, 0.00196316, NaN, NaN, NaN, 0.0274675, "- N/A -   "
1.38, 60.8609, 0.002404667, NaN, NaN, NaN, 0.0384545, "- N/A -   "
1.66, 71.12233, 0.00286005, NaN, NaN, NaN, 0.0433376, "- N/A -   "
1.94, 82.20939, 0.00334043, NaN, NaN, NaN, 0.0372337, "- N/A -   "
2.22, 92.82466, 0.0037986, NaN, NaN, NaN, 0.04089605, "- N/A -   "
2.5, 103.912, 0.004284528, NaN, NaN, NaN, 0.0335714, "- N/A -   "
2.78, 114.999, 0.00474825, NaN, NaN, NaN, 0.0347922, "- N/A -   "
3.06, 125.378, 0.00519253, NaN, NaN, NaN, 0.0445584, "- N/A -   "
3.34, 137.291, 0.00568401, NaN, NaN, NaN, 0.0323506, "- N/A -   "
3.62, 147.552, 0.00611996, NaN, NaN, NaN, 0.0482207, "- N/A -   "
3.9, 159.701, 0.006619776, NaN, NaN, NaN, 0.0323506, "- N/A -   "
4.18, 170.4341, 0.00706683, NaN, NaN, NaN, 0.04089605, "- N/A -   "
4.46, 181.757, 0.00753333, NaN, NaN, NaN, 0.04089605, "- N/A -   "
4.74, 193.5518, 0.008010929, NaN, NaN, NaN, 0.03601294, "- N/A -   "
5.02, 204.639, 0.008457986, NaN, NaN, NaN, 0.0445584, "- N/A -   "
5.3, 216.905, 0.008952248, NaN, NaN, NaN, 0.0335714, "- N/A -   "
5.58, 227.875, 0.009399306, NaN, NaN, NaN, 0.04089605, "- N/A -   "
5.86, 239.787, 0.009871353, NaN, NaN, NaN, 0.0384545, "- N/A -   "
6.14, 251.5726, 0.0103517, NaN, NaN, NaN, 0.0335714, "- N/A -   "
6.42, 262.648, 0.010796, NaN, NaN, NaN, 0.04211683, "- N/A -   "
6.7, 274.784, 0.0112847, NaN, NaN, NaN, 0.0335714, "- N/A -   "
6.98, 285.7422, 0.011729, NaN, NaN, NaN, 0.04211683, "- N/A -   "
7.26, 297.525, 0.0122122, NaN, NaN, NaN, 0.0347922, "- N/A -   "
7.54, 308.718, 0.0126786, NaN, NaN, NaN, 0.0347922, "- N/A -   "
7.82, 319.323, 0.013134, NaN, NaN, NaN, 0.0396753, "- N/A -   "
8.1, 330.987, 0.0136255, NaN, NaN, NaN, 0.0299091, "- N/A -   "
8.38, 341.12, 0.0140587, NaN, NaN, NaN, 0.0445584, "- N/A -   "
8.66, 352.785, 0.014553, NaN, NaN, NaN, 0.0323506, "- N/A -   "
8.94, 363.3896, 0.0150083, NaN, NaN, NaN, 0.0372337, "- N/A -   "
9.22, 374.8187, 0.0154804, NaN, NaN, NaN, 0.0347922, "- N/A -   "
9.5, 386.012, 0.0159552, NaN, NaN, NaN, 0.03112983, "- N/A -   "
9.78, 396.263, 0.01639672, NaN, NaN, NaN, 0.0433376, "- N/A -   "
10.06, 408.163, 0.0168827, NaN, NaN, NaN, 0.0347922, "- N/A -   "
10.34, 419.121, 0.0173436, NaN, NaN, NaN, 0.03601294, "- N/A -   "
10.62, 430.786, 0.01781564, NaN, NaN, NaN, 0.0335714, "- N/A -   "
10.9, 442.333, 0.0182905, NaN, NaN, NaN, 0.0299091, "- N/A -   "
11.18, 452.702, 0.0187236, NaN, NaN, NaN, 0.0445584, "- N/A -   "
11.46, 464.956, 0.0192235, NaN, NaN, NaN, 0.0299091, "- N/A -   "
11.74, 475.913, 0.019665, NaN, NaN, NaN, 0.04089605, "- N/A -   "
12.02, 488.403, 0.020162, NaN, NaN, NaN, 0.0274675, "- N/A -   "
12.3, 499.4787, 0.0206146, NaN, NaN, NaN, 0.0335714, "- N/A -   "
12.58, 510.672, 0.02106444, NaN, NaN, NaN, 0.04089605, "- N/A -   "
12.86, 522.8442, 0.02155315, NaN, NaN, NaN, 0.0323506, "- N/A -   "
13.14, 534.199, 0.022003, NaN, NaN, NaN, 0.0396753, "- N/A -   "
13.42, 546.619, 0.0224889, NaN, NaN, NaN, 0.0323506, "- N/A -   "
13.7, 558.3284, 0.0229526, NaN, NaN, NaN, 0.0323506, "- N/A -   "
13.98, 569.329, 0.0233969, NaN, NaN, NaN, 0.0433376, "- N/A -   "
14.26, 582.103, 0.0238884, NaN, NaN, NaN, 0.03112983, "- N/A -   "
14.54, 593.2213, 0.0243299, NaN, NaN, NaN, 0.04211683, "- N/A -   "
14.82, 606.1139, 0.0248242, NaN, NaN, NaN, 0.0299091, "- N/A -   "
15.1, 617.8237, 0.0252795, NaN, NaN, NaN, 0.0347922, "- N/A -   "
15.38, 630.007, 0.0257433, NaN, NaN, NaN, 0.03601294, "- N/A -   "
15.66, 642.4261, 0.0262181, NaN, NaN, NaN, 0.0323506, "- N/A -   "
15.94, 654.2542, 0.0266707, NaN, NaN, NaN, 0.0384545, "- N/A -   "
16.22, 666.792, 0.0271483, NaN, NaN, NaN, 0.0347922, "- N/A -   "
16.5, 679.093, 0.0276148, NaN, NaN, NaN, 0.0335714, "- N/A -   "
16.78, 691.2761, 0.028073, NaN, NaN, NaN, 0.0372337, "- N/A -   "
17.06, 704.287, 0.0285589, NaN, NaN, NaN, 0.0299091, "- N/A -   "
17.34, 715.6419, 0.02898929, NaN, NaN, NaN, 0.04577916, "- N/A -   "
17.62, 729.126, 0.0294891, NaN, NaN, NaN, 0.03112983, "- N/A -   "
17.9, 740.481, 0.0299223, NaN, NaN, NaN, 0.04577916, "- N/A -   "
18.18, 754.0832, 0.03042487, NaN, NaN, NaN, 0.0299091, "- N/A -   "
18.46, 766.0296, 0.03086915, NaN, NaN, NaN, 0.04089605, "- N/A -   "
18.74, 778.804, 0.0313384, NaN, NaN, NaN, 0.0384545, "- N/A -   "
19.02, 791.5783, 0.0318132, NaN, NaN, NaN, 0.03601294, "- N/A -   "
19.3, 803.6429, 0.0322659, NaN, NaN, NaN, 0.04089605, "- N/A -   "
19.58, 816.772, 0.0327435, NaN, NaN, NaN, 0.03601294, "- N/A -   "
19.86, 829.4281, 0.03321, NaN, NaN, NaN, 0.03601294, "- N/A -   "
20.14, 841.9659, 0.0336681, NaN, NaN, NaN, 0.04089605, "- N/A -   "
20.42, 855.0951, 0.0341568, NaN, NaN, NaN, 0.0299091, "- N/A -   "
20.7, 866.5683, 0.0345872, NaN, NaN, NaN, 0.04577916, "- N/A -   "
20.98, 880.289, 0.035087, NaN, NaN, NaN, 0.03112983, "- N/A -   "
21.26, 892.117, 0.03552576, NaN, NaN, NaN, 0.0433376, "- N/A -   "
21.54, 905.364, 0.03601447, NaN, NaN, NaN, 0.0347922, "- N/A -   "
21.82, 917.9022, 0.0364754, NaN, NaN, NaN, 0.0372337, "- N/A -   "
22.1, 930.2034, 0.03691969, NaN, NaN, NaN, 0.04699994, "- N/A -   "
22.38, 943.569, 0.03741118, NaN, NaN, NaN, 0.0372337, "- N/A -   "
22.66, 955.7521, 0.0378582, NaN, NaN, NaN, 0.0445584, "- N/A -   "
22.94, 969.3544, 0.03834972, NaN, NaN, NaN, 0.0335714, "- N/A -   "
23.22, 981.774, 0.03881344, NaN, NaN, NaN, 0.0347922, "- N/A -   "
23.5, 993.9568, 0.0392577, NaN, NaN, NaN, 0.0445584, "- N/A -   "
23.78, 1007.559, 0.0397492, NaN, NaN, NaN, 0.0347922, "- N/A -   "
24.06, 1019.68, 0.0401907, NaN, NaN, NaN, 0.0445584, "- N/A -   "
24.34, 1033.51, 0.04068497, NaN, NaN, NaN, 0.0323506, "- N/A -   "
24.62, 1045.91, 0.04114313, NaN, NaN, NaN, 0.03601294, "- N/A -   "
24.9, 1058.55, 0.0415985, NaN, NaN, NaN, 0.04089605, "- N/A -   "
25.18, 1072.03, 0.0420789, NaN, NaN, NaN, 0.0347922, "- N/A -   "
25.46, 1084.19, 0.0425204, NaN, NaN, NaN, 0.04577916, "- N/A -   "
25.74, 1098.15, 0.0430174, NaN, NaN, NaN, 0.0323506, "- N/A -   "
26.02, 1110.91, 0.0434728, NaN, NaN, NaN, 0.0372337, "- N/A -   "
26.3, 1124.26, 0.0439421, NaN, NaN, NaN, 0.0372337, "- N/A -   "
26.58, 1137.499, 0.0444169, NaN, NaN, NaN, 0.0347922, "- N/A -   "
26.86, 1149.9, 0.0448612, NaN, NaN, NaN, 0.0433376, "- N/A -   "
27.14, 1163.62, 0.04534436, NaN, NaN, NaN, 0.03601294, "- N/A -   "
27.42, 1175.78, 0.04578864, NaN, NaN, NaN, 0.04577916, "- N/A -   "
27.7, 1189.97, 0.0462885, NaN, NaN, NaN, 0.0323506, "- N/A -   "
27.98, 1202.97, 0.0467522, NaN, NaN, NaN, 0.0323506, "- N/A -   "
28.26, 1215.25, 0.0471965, NaN, NaN, NaN, 0.04211683, "- N/A -   "
28.54, 1229.2, 0.0476879, NaN, NaN, NaN, 0.0323506, "- N/A -   "
28.82, 1241.37, 0.04812944, NaN, NaN, NaN, 0.0433376, "- N/A -   "
29.1, 1255.56, 0.0486182, NaN, NaN, NaN, 0.0323506, "- N/A -   "
29.38, 1268.32, 0.0490763, NaN, NaN, NaN, 0.03601294, "- N/A -   "
29.66, 1281.32, 0.04954003, NaN, NaN, NaN, 0.0372337, "- N/A -   "
29.94, 1294.91, 0.0500232, NaN, NaN, NaN, 0.0299091, "- N/A -   "
30.22, 1307.19, 0.05046469, NaN, NaN, NaN, 0.04089605, "- N/A -   "
30.5, 1320.91, 0.05094507, NaN, NaN, NaN, 0.03601294, "- N/A -   "
30.78, 1334.03, 0.0514088, NaN, NaN, NaN, 0.0372337, "- N/A -   "
31.06, 1347.144, 0.05187528, NaN, NaN, NaN, 0.0372337, "- N/A -   "
31.34, 1360.74, 0.0523584, NaN, NaN, NaN, 0.0299091, "- N/A -   "
31.62, 1372.78, 0.0527916, NaN, NaN, NaN, 0.04577916, "- N/A -   "
31.9, 1387.09, 0.0532914, NaN, NaN, NaN, 0.03112983, "- N/A -   "
32.18, 1399.73, 0.0537357, NaN, NaN, NaN, 0.0396753, "- N/A -   "
32.46, 1413.57, 0.0542216, NaN, NaN, NaN, 0.03112983, "- N/A -   "
32.74, 1426.685, 0.0546826, NaN, NaN, NaN, 0.0347922, "- N/A -   "
33.02, 1439.21, 0.0551296, NaN, NaN, NaN, 0.04211683, "- N/A -   "
33.3, 1452.8, 0.0556128, NaN, NaN, NaN, 0.0347922, "- N/A -   "
33.58, 1465.8, 0.05607373, NaN, NaN, NaN, 0.0372337, "- N/A -   "
33.86, 1479.51, 0.05655133, NaN, NaN, NaN, 0.0335714, "- N/A -   "
34.14, 1492.63, 0.05702338, NaN, NaN, NaN, 0.0299091, "- N/A -   "
34.42, 1504.68, 0.05745655, NaN, NaN, NaN, 0.04577916, "- N/A -   "
34.7, 1518.99, 0.05795359, NaN, NaN, NaN, 0.03112983, "- N/A -   "
34.98, 1530.91, 0.05838954, NaN, NaN, NaN, 0.0445584, "- N/A -   "
35.26, 1545.22, 0.0588949, NaN, NaN, NaN, 0.0274675, "- N/A -   "
35.54, 1557.5, 0.0593392, NaN, NaN, NaN, 0.0384545, "- N/A -   "
35.82, 1570.74, 0.05980568, NaN, NaN, NaN, 0.0384545, "- N/A -   "
36.1, 1583.86, 0.0602777, NaN, NaN, NaN, 0.03601294, "- N/A -   "
36.38, 1596.74, 0.0607359, NaN, NaN, NaN, 0.0396753, "- N/A -   "
36.66, 1610.09, 0.0612135, NaN, NaN, NaN, 0.0347922, "- N/A -   "
36.94, 1623.093, 0.06168, NaN, NaN, NaN, 0.0347922, "- N/A -   "
37.22, 1635.61, 0.062127, NaN, NaN, NaN, 0.0433376, "- N/A -   "
37.5, 1649.567, 0.06262408, NaN, NaN, NaN, 0.0299091, "- N/A -   "
37.78, 1661.13, 0.0630517, NaN, NaN, NaN, 0.04699994, "- N/A -   "
38.06, 1675.564, 0.06355985, NaN, NaN, NaN, 0.0286883, "- N/A -   "
38.34, 1687.37, 0.06399302, NaN, NaN, NaN, 0.0433376, "- N/A -   "
38.62, 1701.08, 0.064479, NaN, NaN, NaN, 0.03601294, "- N/A -   "
38.9, 1713.963, 0.0649399, NaN, NaN, NaN, 0.0372337, "- N/A -   "
39.18, 1726.48, 0.06540084, NaN, NaN, NaN, 0.0396753, "- N/A -   "
39.46, 1739.96, 0.0658784, NaN, NaN, NaN, 0.0347922, "- N/A -   "
39.74, 1751.89, 0.06632549, NaN, NaN, NaN, 0.0433376, "- N/A -   "
40.02, 1765.36, 0.06680865, NaN, NaN, NaN, 0.0384545, "- N/A -   "
40.3, 1778.12, 0.0672807, NaN, NaN, NaN, 0.03601294, "- N/A -   "
40.58, 1790.4, 0.06773331, NaN, NaN, NaN, 0.04211683, "- N/A -   "
40.86, 1803.52, 0.0682192, NaN, NaN, NaN, 0.0335714, "- N/A -   "
41.14, 1814.85, 0.0686441, NaN, NaN, NaN, 0.05066227, "- N/A -   "
41.373, 1826.66, 0.0690717, NaN, NaN, NaN, 0.0335714, "- N/A -   "