File: 2_Tensile_Data/Hamel_ForceTest_Bolt5_Test11.csv
Time, Load (lb), Position (in), AxialStrain (in), TransverseStrain (in), Auxiliary (), Control Out (V), Stress (psi)
0.0, 14.3896, 0.0, NaN, NaN, NaN, -0.007935055, "- N/A -   "
0.01, 14.2716, 0.0, NaN, NaN, NaN, -6.103888E-4, "- N/A -   "
0.02, 14.2716, 0.0, NaN, NaN, NaN, 0.0140389, "- N/A -   "
0.03, 14.3896, 2.776752E-6, NaN, NaN, NaN, 0.0323506, "- N/A -   "
0.04, 14.5075, 1.1107e-05, NaN, NaN, NaN, 0.0494415, "- N/A -   "
0.05, 14.7434, 2.2214e-05, NaN, NaN, NaN, 0.06287005, "- N/A -   "
0.06, 14.9793, 3.88745e-05, NaN, NaN, NaN, 0.0750778, "- N/A -   "
0.07, 15.4511, 6.108854E-5, NaN, NaN, NaN, 0.084844, "- N/A -   "
0.08, 15.9229, 8.885606E-5, NaN, NaN, NaN, 0.09338949, "- N/A -   "
0.09, 16.5126, 0.000116624, NaN, NaN, NaN, 0.09949338, "- N/A -   "
0.1, 17.2203, 1.499446E-4, NaN, NaN, NaN, 0.09949338, "- N/A -   "
0.11, 17.8101, 0.000180489, NaN, NaN, NaN, 0.09216871, "- N/A -   "
0.12, 18.2819, 2.138099E-4, NaN, NaN, NaN, 0.084844, "- N/A -   "
0.13, 18.7536, 0.000244354, NaN, NaN, NaN, 0.0799609, "- N/A -   "
0.14, 19.3434, 0.000269345, NaN, NaN, NaN, 0.0750778, "- N/A -   "
0.15, 19.6972, 0.000294336, NaN, NaN, NaN, 0.07263627, "- N/A -   "
0.16, 20.05107, 3.165497E-4, NaN, NaN, NaN, 0.0701947, "- N/A -   "
0.17, 20.4049, 0.000335987, NaN, NaN, NaN, 0.06775316, "- N/A -   "
0.18, 20.8767, 0.000358201, NaN, NaN, NaN, 0.06653238, "- N/A -   "
0.19, 21.1126, 0.000377638, NaN, NaN, NaN, 0.0653116, "- N/A -   "
0.2, 21.46644, 0.000394299, NaN, NaN, NaN, 0.0640908, "- N/A -   "
0.21, 21.7023, 0.000410959, NaN, NaN, NaN, 0.0640908, "- N/A -   "
0.22, 22.0562, 0.000430397, NaN, NaN, NaN, 0.06287005, "- N/A -   "
0.23, 22.41, 0.000449834, NaN, NaN, NaN, 0.06287005, "- N/A -   "
0.24, 22.6459, 4.664943E-4, NaN, NaN, NaN, 0.06164927, "- N/A -   "
0.25, 22.88181, 0.000485932, NaN, NaN, NaN, 0.06164927, "- N/A -   "
0.26, 23.2357, 0.000502592, NaN, NaN, NaN, 0.06164927, "- N/A -   "
0.27, 23.5895, 5.192526E-4, NaN, NaN, NaN, 0.0604285, "- N/A -   "
0.28, 23.82539, 5.414666E-4, NaN, NaN, NaN, 0.0592077, "- N/A -   "
0.29, 24.1792, 5.581271E-4, NaN, NaN, NaN, 0.0579869, "- N/A -   "
0.3, 24.5331, 0.000580341, NaN, NaN, NaN, 0.0555454, "- N/A -   "
0.31, 25.0049, 5.997784E-4, NaN, NaN, NaN, 0.0543246, "- N/A -   "
0.32, 25.2408, 0.000624769, NaN, NaN, NaN, 0.05188305, "- N/A -   "
0.33, 25.7125, 6.442064E-4, NaN, NaN, NaN, 0.0494415, "- N/A -   "
0.34, 25.9484, 0.00066642, NaN, NaN, NaN, 0.04699994, "- N/A -   "
0.35, 26.3023, 6.858577E-4, NaN, NaN, NaN, 0.04577916, "- N/A -   "
0.36, 26.6561, 0.000705295, NaN, NaN, NaN, 0.0445584, "- N/A -   "
0.37, 26.892, 0.000724732, NaN, NaN, NaN, 0.0433376, "- N/A -   "
0.38, 27.2459, 0.000744169, NaN, NaN, NaN, 0.04211683, "- N/A -   "
0.39, 27.5997, 0.000763607, NaN, NaN, NaN, 0.04211683, "- N/A -   "
0.4, 27.8356, 0.000783044, NaN, NaN, NaN, 0.0396753, "- N/A -   "
0.41, 28.3074, 7.997045E-4, NaN, NaN, NaN, 0.0396753, "- N/A -   "
0.42, 28.54329, 8.191418E-4, NaN, NaN, NaN, 0.0396753, "- N/A -   "
0.43, 28.7792, 8.358023E-4, NaN, NaN, NaN, 0.0384545, "- N/A -   "
0.44, 29.0151, 8.524628E-4, NaN, NaN, NaN, 0.0396753, "- N/A -   "
0.45, 29.251, 8.663466E-4, NaN, NaN, NaN, 0.0396753, "- N/A -   "
0.46, 29.6048, 8.857838E-4, NaN, NaN, NaN, 0.0396753, "- N/A -   "
0.47, 29.84071, 0.000902444, NaN, NaN, NaN, 0.0384545, "- N/A -   "
0.48, 30.0766, 9.218816E-4, NaN, NaN, NaN, 0.0384545, "- N/A -   "
0.49, 30.5484, 0.000941319, NaN, NaN, NaN, 0.03601294, "- N/A -   "
0.5, 30.78429, 0.000957979, NaN, NaN, NaN, 0.03601294, "- N/A -   "
0.51, 31.0202, 9.774166E-4, NaN, NaN, NaN, 0.0347922, "- N/A -   "
0.52, 31.374, 9.940772E-4, NaN, NaN, NaN, 0.0347922, "- N/A -   "
0.53, 31.72787, 0.00101351, NaN, NaN, NaN, 0.0335714, "- N/A -   "
0.59, 33.49708, 0.001119031, NaN, NaN, NaN, 0.03112983, "- N/A -   "
0.65, 35.1483, 0.001218994, NaN, NaN, NaN, 0.03112983, "- N/A -   "
0.71, 36.6817, 0.00131063, NaN, NaN, NaN, 0.03601294, "- N/A -   "
0.77, 38.097, 0.00139671, NaN, NaN, NaN, 0.04089605, "- N/A -   "
0.83, 39.6304, 0.00148834, NaN, NaN, NaN, 0.0445584, "- N/A -   "
0.89, 41.51751, 0.00159386, NaN, NaN, NaN, 0.0433376, "- N/A -   "
0.95, 43.1688, 0.00169382, NaN, NaN, NaN, 0.04211683, "- N/A -   "
1.01, 45.05593, 0.00179656, NaN, NaN, NaN, 0.04089605, "- N/A -   "
1.07, 46.9431, 0.00191041, NaN, NaN, NaN, 0.03601294, "- N/A -   "
1.13, 49.1841, 0.002024252, NaN, NaN, NaN, 0.0286883, "- N/A -   "
1.19, 50.9533, 0.002126992, NaN, NaN, NaN, 0.0286883, "- N/A -   "
1.25, 52.6046, 0.0022214, NaN, NaN, NaN, 0.0299091, "- N/A -   "
1.31, 54.2558, 0.00231026, NaN, NaN, NaN, 0.0347922, "- N/A -   "
1.37, 56.02505, 0.002404667, NaN, NaN, NaN, 0.0372337, "- N/A -   "
1.43, 57.79426, 0.00250741, NaN, NaN, NaN, 0.03601294, "- N/A -   "
1.49, 59.68142, 0.00260182, NaN, NaN, NaN, 0.0384545, "- N/A -   "
1.55, 61.3327, 0.00269067, NaN, NaN, NaN, 0.0433376, "- N/A -   "
1.61, 63.2198, 0.00278786, NaN, NaN, NaN, 0.04577916, "- N/A -   "
1.67, 65.107, 0.0028906, NaN, NaN, NaN, 0.0433376, "- N/A -   "
1.73, 67.5839, 0.003012776, NaN, NaN, NaN, 0.0335714, "- N/A -   "
1.79, 69.707, 0.003121069, NaN, NaN, NaN, 0.0299091, "- N/A -   "
1.85, 71.3582, 0.003209925, NaN, NaN, NaN, 0.03601294, "- N/A -   "
1.91, 73.36333, 0.00330711, NaN, NaN, NaN, 0.0372337, "- N/A -   "
1.97, 75.36844, 0.003409851, NaN, NaN, NaN, 0.0347922, "- N/A -   "
2.03, 77.6094, 0.003515368, NaN, NaN, NaN, 0.0323506, "- N/A -   "
2.09, 79.61454, 0.00360978, NaN, NaN, NaN, 0.0347922, "- N/A -   "
2.15, 81.5017, 0.00370419, NaN, NaN, NaN, 0.0384545, "- N/A -   "
2.21, 83.38886, 0.00379027, NaN, NaN, NaN, 0.0433376, "- N/A -   "
2.27, 85.62987, 0.00390134, NaN, NaN, NaN, 0.0384545, "- N/A -   "
2.33, 87.75292, 0.0040013, NaN, NaN, NaN, 0.0384545, "- N/A -   "
2.39, 90.11186, 0.00410959, NaN, NaN, NaN, 0.0347922, "- N/A -   "
2.45, 92.23492, 0.00420956, NaN, NaN, NaN, 0.03601294, "- N/A -   "
2.51, 94.47592, 0.004312296, NaN, NaN, NaN, 0.0335714, "- N/A -   "
2.57, 96.95282, 0.00442059, NaN, NaN, NaN, 0.0299091, "- N/A -   "
2.63, 99.0759, 0.004520552, NaN, NaN, NaN, 0.0299091, "- N/A -   "
2.69, 101.081, 0.004612185, NaN, NaN, NaN, 0.0335714, "- N/A -   "
2.75, 103.322, 0.004712148, NaN, NaN, NaN, 0.0347922, "- N/A -   "
2.81, 105.445, 0.004814888, NaN, NaN, NaN, 0.0335714, "- N/A -   "
2.87, 107.3322, 0.00490097, NaN, NaN, NaN, 0.0384545, "- N/A -   "
2.93, 109.5732, 0.004998153, NaN, NaN, NaN, 0.04089605, "- N/A -   "
2.99, 111.696, 0.00508979, NaN, NaN, NaN, 0.0433376, "- N/A -   "
3.05, 113.819, 0.0051842, NaN, NaN, NaN, 0.04699994, "- N/A -   "
3.11, 116.414, 0.00529804, NaN, NaN, NaN, 0.0396753, "- N/A -   "
3.17, 119.127, 0.00541189, NaN, NaN, NaN, 0.0347922, "- N/A -   "
3.23, 121.368, 0.00550908, NaN, NaN, NaN, 0.0347922, "- N/A -   "
3.29, 123.7269, 0.00560904, NaN, NaN, NaN, 0.0347922, "- N/A -   "
3.35, 126.204, 0.00572011, NaN, NaN, NaN, 0.0299091, "- N/A -   "
3.41, 128.799, 0.005825625, NaN, NaN, NaN, 0.0274675, "- N/A -   "
3.47, 130.804, 0.0059117, NaN, NaN, NaN, 0.0335714, "- N/A -   "
3.53, 132.6909, 0.00600056, NaN, NaN, NaN, 0.0384545, "- N/A -   "
3.59, 134.696, 0.00608664, NaN, NaN, NaN, 0.0445584, "- N/A -   "
3.65, 137.173, 0.00618383, NaN, NaN, NaN, 0.04699994, "- N/A -   "
3.71, 139.65, 0.006289343, NaN, NaN, NaN, 0.04577916, "- N/A -   "
3.77, 142.3626, 0.006400413, NaN, NaN, NaN, 0.0396753, "- N/A -   "
3.83, 145.0754, 0.00651426, NaN, NaN, NaN, 0.0347922, "- N/A -   "
3.89, 147.434, 0.006617, NaN, NaN, NaN, 0.0323506, "- N/A -   "
3.95, 150.147, 0.00672807, NaN, NaN, NaN, 0.0274675, "- N/A -   "
4.01, 152.624, 0.00682803, NaN, NaN, NaN, 0.0274675, "- N/A -   "
4.07, 154.747, 0.00691967, NaN, NaN, NaN, 0.03112983, "- N/A -   "
4.13, 156.752, 0.00700852, NaN, NaN, NaN, 0.03601294, "- N/A -   "
4.19, 158.9932, 0.00709738, NaN, NaN, NaN, 0.04089605, "- N/A -   "
4.25, 161.116, 0.00719179, NaN, NaN, NaN, 0.0433376, "- N/A -   "
4.31, 163.475, 0.007288974, NaN, NaN, NaN, 0.0445584, "- N/A -   "
4.37, 165.834, 0.00738616, NaN, NaN, NaN, 0.04577916, "- N/A -   "
4.43, 168.429, 0.0074889, NaN, NaN, NaN, 0.0445584, "- N/A -   "
4.49, 171.142, 0.00760275, NaN, NaN, NaN, 0.0384545, "- N/A -   "
4.55, 174.09, 0.007722147, NaN, NaN, NaN, 0.0299091, "- N/A -   "
4.61, 176.449, 0.00782211, NaN, NaN, NaN, 0.03112983, "- N/A -   "
4.67, 178.69, 0.007913743, NaN, NaN, NaN, 0.0335714, "- N/A -   "
4.73, 181.167, 0.008010929, NaN, NaN, NaN, 0.03601294, "- N/A -   "
4.79, 183.526, 0.008108115, NaN, NaN, NaN, 0.03601294, "- N/A -   "
4.85, 185.885, 0.008205301, NaN, NaN, NaN, 0.0372337, "- N/A -   "
4.91, 188.008, 0.008296934, NaN, NaN, NaN, 0.04089605, "- N/A -   "
4.97, 190.249, 0.008391344, NaN, NaN, NaN, 0.0433376, "- N/A -   "
5.03, 192.49, 0.00848853, NaN, NaN, NaN, 0.0445584, "- N/A -   "
5.09, 195.321, 0.008602377, NaN, NaN, NaN, 0.0396753, "- N/A -   "
5.15, 197.916, 0.00871067, NaN, NaN, NaN, 0.0347922, "- N/A -   "
5.21, 200.7466, 0.008827294, NaN, NaN, NaN, 0.0274675, "- N/A -   "
5.27, 202.87, 0.008918927, NaN, NaN, NaN, 0.03112983, "- N/A -   "
5.33, 204.9927, 0.00901056, NaN, NaN, NaN, 0.03601294, "- N/A -   "
5.39, 207.4696, 0.0091133, NaN, NaN, NaN, 0.0347922, "- N/A -   "
5.45, 210.064, 0.009216039, NaN, NaN, NaN, 0.0323506, "- N/A -   "
5.51, 211.9516, 0.009304895, NaN, NaN, NaN, 0.0372337, "- N/A -   "
5.57, 214.1926, 0.009399305, NaN, NaN, NaN, 0.0396753, "- N/A -   "
5.63, 216.434, 0.009496491, NaN, NaN, NaN, 0.04089605, "- N/A -   "
5.69, 218.793, 0.009599231, NaN, NaN, NaN, 0.0396753, "- N/A -   "
5.75, 221.152, 0.009701972, NaN, NaN, NaN, 0.0396753, "- N/A -   "
5.81, 223.51, 0.009804712, NaN, NaN, NaN, 0.0384545, "- N/A -   "
5.87, 225.8694, 0.009907451, NaN, NaN, NaN, 0.0372337, "- N/A -   "
5.93, 228.11, 0.0100046, NaN, NaN, NaN, 0.0372337, "- N/A -   "
5.99, 230.233, 0.0101046, NaN, NaN, NaN, 0.0372337, "- N/A -   "
6.05, 232.357, 0.0102046, NaN, NaN, NaN, 0.0372337, "- N/A -   "
6.11, 234.715, 0.01031008, NaN, NaN, NaN, 0.03601294, "- N/A -   "
6.17, 237.074, 0.01041282, NaN, NaN, NaN, 0.0335714, "- N/A -   "
6.23, 239.315, 0.0105211, NaN, NaN, NaN, 0.03112983, "- N/A -   "
6.29, 241.203, 0.01061, NaN, NaN, NaN, 0.03601294, "- N/A -   "
6.35, 243.207, 0.0106988, NaN, NaN, NaN, 0.0396753, "- N/A -   "
6.41, 245.092, 0.0107905, NaN, NaN, NaN, 0.0433376, "- N/A -   "
6.47, 247.331, 0.0108904, NaN, NaN, NaN, 0.0433376, "- N/A -   "
6.53, 249.805, 0.0110043, NaN, NaN, NaN, 0.0384545, "- N/A -   "
6.59, 252.28, 0.0111181, NaN, NaN, NaN, 0.03112983, "- N/A -   "
6.65, 254.4, 0.0112181, NaN, NaN, NaN, 0.03112983, "- N/A -   "
6.71, 256.5213, 0.0113125, NaN, NaN, NaN, 0.0335714, "- N/A -   "
6.77, 258.76, 0.0114208, NaN, NaN, NaN, 0.0299091, "- N/A -   "
6.83, 260.8809, 0.0115207, NaN, NaN, NaN, 0.0299091, "- N/A -   "
6.89, 263.002, 0.0116152, NaN, NaN, NaN, 0.0323506, "- N/A -   "
6.95, 264.769, 0.0117012, NaN, NaN, NaN, 0.0384545, "- N/A -   "
7.01, 266.7722, 0.0117929, NaN, NaN, NaN, 0.04211683, "- N/A -   "
7.07, 268.7752, 0.0118873, NaN, NaN, NaN, 0.0445584, "- N/A -   "
7.13, 271.25, 0.0119956, NaN, NaN, NaN, 0.04089605, "- N/A -   "
7.19, 273.37, 0.0120983, NaN, NaN, NaN, 0.0396753, "- N/A -   "
7.25, 275.727, 0.0122038, NaN, NaN, NaN, 0.0372337, "- N/A -   "
7.31, 278.0835, 0.0123121, NaN, NaN, NaN, 0.0335714, "- N/A -   "
7.37, 280.558, 0.0124204, NaN, NaN, NaN, 0.0299091, "- N/A -   "
7.43, 282.561, 0.0125204, NaN, NaN, NaN, 0.0299091, "- N/A -   "
7.49, 284.917, 0.0126231, NaN, NaN, NaN, 0.0286883, "- N/A -   "
7.55, 286.8026, 0.0127147, NaN, NaN, NaN, 0.0323506, "- N/A -   "
7.61, 288.452, 0.012798, NaN, NaN, NaN, 0.0396753, "- N/A -   "
7.67, 290.3374, 0.0128897, NaN, NaN, NaN, 0.0433376, "- N/A -   "
7.73, 292.6939, 0.0129924, NaN, NaN, NaN, 0.0433376, "- N/A -   "
7.79, 294.8148, 0.0130896, NaN, NaN, NaN, 0.0433376, "- N/A -   "
7.85, 297.407, 0.0132007, NaN, NaN, NaN, 0.0384545, "- N/A -   "
7.91, 299.7635, 0.0133145, NaN, NaN, NaN, 0.0323506, "- N/A -   "
7.97, 302.356, 0.0134284, NaN, NaN, NaN, 0.0274675, "- N/A -   "
8.03, 304.3587, 0.0135228, NaN, NaN, NaN, 0.0286883, "- N/A -   "
8.09, 306.362, 0.0136172, NaN, NaN, NaN, 0.03112983, "- N/A -   "
8.15, 308.6, 0.0137088, NaN, NaN, NaN, 0.03601294, "- N/A -   "
8.21, 310.486, 0.013806, NaN, NaN, NaN, 0.0372337, "- N/A -   "
8.27, 312.724, 0.0139032, NaN, NaN, NaN, 0.0384545, "- N/A -   "
8.33, 314.7274, 0.0139976, NaN, NaN, NaN, 0.04211683, "- N/A -   "
8.39, 316.73, 0.014092, NaN, NaN, NaN, 0.0433376, "- N/A -   "
8.45, 318.8513, 0.0141864, NaN, NaN, NaN, 0.04577916, "- N/A -   "
8.51, 321.326, 0.0143058, NaN, NaN, NaN, 0.0384545, "- N/A -   "
8.57, 323.8, 0.0144141, NaN, NaN, NaN, 0.0347922, "- N/A -   "
8.63, 326.0387, 0.0145141, NaN, NaN, NaN, 0.0335714, "- N/A -   "
8.69, 328.042, 0.0146085, NaN, NaN, NaN, 0.03601294, "- N/A -   "
8.75, 330.28, 0.0147085, NaN, NaN, NaN, 0.03601294, "- N/A -   "
8.81, 332.283, 0.0148084, NaN, NaN, NaN, 0.03601294, "- N/A -   "
8.87, 334.758, 0.0149167, NaN, NaN, NaN, 0.0323506, "- N/A -   "
8.89, 335.465, 0.01495, NaN, NaN, NaN, 0.0323506, "- N/A -   "
8.9, 335.7, 0.0149667, NaN, NaN, NaN, 0.0335714, "- N/A -   "
8.91, 336.054, 0.0149806, NaN, NaN, NaN, 0.0335714, "- N/A -   "
9.05, 340.767, 0.0151972, NaN, NaN, NaN, 0.04089605, "- N/A -   "
9.19, 345.9513, 0.0154415, NaN, NaN, NaN, 0.0372337, "- N/A -   "
9.33, 351.018, 0.015672, NaN, NaN, NaN, 0.0372337, "- N/A -   "
9.47, 356.438, 0.0159136, NaN, NaN, NaN, 0.0335714, "- N/A -   "
9.61, 361.387, 0.01614959, NaN, NaN, NaN, 0.0335714, "- N/A -   "
9.75, 366.1, 0.0163662, NaN, NaN, NaN, 0.0396753, "- N/A -   "
9.89, 371.048, 0.01659387, NaN, NaN, NaN, 0.04211683, "- N/A -   "
10.03, 376.7039, 0.016841, NaN, NaN, NaN, 0.03601294, "- N/A -   "
10.17, 382.006, 0.0170826, NaN, NaN, NaN, 0.0323506, "- N/A -   "
10.31, 386.955, 0.017313, NaN, NaN, NaN, 0.0347922, "- N/A -   "
10.45, 391.55, 0.0175185, NaN, NaN, NaN, 0.04699994, "- N/A -   "
10.59, 397.3235, 0.0177712, NaN, NaN, NaN, 0.0372337, "- N/A -   "
10.73, 402.979, 0.0180239, NaN, NaN, NaN, 0.0286883, "- N/A -   "
10.87, 408.046, 0.0182544, NaN, NaN, NaN, 0.0299091, "- N/A -   "
11.01, 412.4052, 0.01845707, NaN, NaN, NaN, 0.0433376, "- N/A -   "
11.15, 417.59, 0.0186792, NaN, NaN, NaN, 0.0482207, "- N/A -   "
11.29, 423.4809, 0.018943, NaN, NaN, NaN, 0.0347922, "- N/A -   "
11.43, 429.0187, 0.01918458, NaN, NaN, NaN, 0.03112983, "- N/A -   "
11.57, 434.0852, 0.0194095, NaN, NaN, NaN, 0.03601294, "- N/A -   "
11.71, 439.27, 0.0196316, NaN, NaN, NaN, 0.0396753, "- N/A -   "
11.85, 444.218, 0.0198566, NaN, NaN, NaN, 0.0445584, "- N/A -   "
11.99, 450.463, 0.0201203, NaN, NaN, NaN, 0.03112983, "- N/A -   "
12.13, 455.6474, 0.02034526, NaN, NaN, NaN, 0.0335714, "- N/A -   "
12.27, 461.303, 0.02058406, NaN, NaN, NaN, 0.03112983, "- N/A -   "
12.41, 465.8983, 0.0207951, NaN, NaN, NaN, 0.04089605, "- N/A -   "
12.55, 471.4361, 0.02102834, NaN, NaN, NaN, 0.04089605, "- N/A -   "
12.69, 477.3274, 0.0212755, NaN, NaN, NaN, 0.03601294, "- N/A -   "
12.83, 482.8652, 0.0215143, NaN, NaN, NaN, 0.0347922, "- N/A -   "
12.97, 488.05, 0.021742, NaN, NaN, NaN, 0.03601294, "- N/A -   "
13.11, 493.352, 0.02196966, NaN, NaN, NaN, 0.0384545, "- N/A -   "
13.25, 498.654, 0.0221918, NaN, NaN, NaN, 0.0433376, "- N/A -   "
13.39, 504.781, 0.02245, NaN, NaN, NaN, 0.0335714, "- N/A -   "
13.53, 510.319, 0.0226861, NaN, NaN, NaN, 0.03112983, "- N/A -   "
13.67, 515.7474, 0.0229165, NaN, NaN, NaN, 0.0323506, "- N/A -   "
13.81, 520.597, 0.0231248, NaN, NaN, NaN, 0.0445584, "- N/A -   "
13.95, 526.156, 0.0233608, NaN, NaN, NaN, 0.0433376, "- N/A -   "
14.09, 532.4249, 0.0236191, NaN, NaN, NaN, 0.0323506, "- N/A -   "
14.23, 538.1024, 0.0238523, NaN, NaN, NaN, 0.03112983, "- N/A -   "
14.37, 543.1885, 0.0240717, NaN, NaN, NaN, 0.0372337, "- N/A -   "
14.51, 548.3929, 0.024291, NaN, NaN, NaN, 0.0445584, "- N/A -   "
14.65, 554.1886, 0.0245298, NaN, NaN, NaN, 0.04089605, "- N/A -   "
14.79, 560.8123, 0.0247936, NaN, NaN, NaN, 0.0274675, "- N/A -   "
14.93, 566.135, 0.0250185, NaN, NaN, NaN, 0.03112983, "- N/A -   "
15.07, 571.3393, 0.02523512, NaN, NaN, NaN, 0.0384545, "- N/A -   "
15.21, 576.5437, 0.0254545, NaN, NaN, NaN, 0.0445584, "- N/A -   "
15.35, 582.8126, 0.0257072, NaN, NaN, NaN, 0.0372337, "- N/A -   "
15.49, 588.8449, 0.0259543, NaN, NaN, NaN, 0.03112983, "- N/A -   "
15.63, 594.2858, 0.0261792, NaN, NaN, NaN, 0.0347922, "- N/A -   "
15.77, 599.845, 0.02640691, NaN, NaN, NaN, 0.0372337, "- N/A -   "
15.91, 605.4042, 0.0266318, NaN, NaN, NaN, 0.0396753, "- N/A -   "
16.05, 611.4366, 0.0268706, NaN, NaN, NaN, 0.0372337, "- N/A -   "
16.19, 617.3506, 0.0271122, NaN, NaN, NaN, 0.0335714, "- N/A -   "
16.33, 623.3829, 0.0273538, NaN, NaN, NaN, 0.0299091, "- N/A -   "
16.47, 628.9421, 0.0275787, NaN, NaN, NaN, 0.0347922, "- N/A -   "
16.61, 634.1464, 0.02778973, NaN, NaN, NaN, 0.0433376, "- N/A -   "
16.75, 640.415, 0.0280341, NaN, NaN, NaN, 0.0384545, "- N/A -   "
16.89, 646.5659, 0.0282812, NaN, NaN, NaN, 0.0323506, "- N/A -   "
17.03, 652.598, 0.0285256, NaN, NaN, NaN, 0.0286883, "- N/A -   "
17.17, 657.8026, 0.0287394, NaN, NaN, NaN, 0.03601294, "- N/A -   "
17.31, 663.2435, 0.0289532, NaN, NaN, NaN, 0.04577916, "- N/A -   "
17.45, 669.867, 0.0292087, NaN, NaN, NaN, 0.0372337, "- N/A -   "
17.59, 676.0179, 0.029453, NaN, NaN, NaN, 0.03112983, "- N/A -   "
17.73, 681.932, 0.02968903, NaN, NaN, NaN, 0.0299091, "- N/A -   "
[...]
42.11, 1767.75, 0.0703268, NaN, NaN, NaN, 0.0274675, "- N/A -   "
42.23, 1772.75, 0.07051839, NaN, NaN, NaN, 0.03112983, "- N/A -   "
42.35, 1777.64, 0.07070721, NaN, NaN, NaN, 0.03601294, "- N/A -   "
42.47, 1782.41, 0.07089047, NaN, NaN, NaN, 0.0433376, "- N/A -   "
42.59, 1787.42, 0.07108485, NaN, NaN, NaN, 0.04577916, "- N/A -   "
42.71, 1793.74, 0.0713181, NaN, NaN, NaN, 0.0323506, "- N/A -   "
42.83, 1798.51, 0.07150414, NaN, NaN, NaN, 0.0372337, "- N/A -   "
42.95, 1804.59, 0.07172906, NaN, NaN, NaN, 0.0274675, "- N/A -   "
43.07, 1809.01, 0.07190399, NaN, NaN, NaN, 0.0384545, "- N/A -   "
43.19, 1813.9, 0.07209003, NaN, NaN, NaN, 0.0433376, "- N/A -   "
43.31, 1819.14, 0.07229551, NaN, NaN, NaN, 0.04211683, "- N/A -   "
43.43, 1824.99, 0.07250655, NaN, NaN, NaN, 0.03601294, "- N/A -   "
43.55, 1830.59, 0.07272036, NaN, NaN, NaN, 0.0299091, "- N/A -   "
43.67, 1835.72, 0.0729175, NaN, NaN, NaN, 0.0323506, "- N/A -   "
43.79, 1840.61, 0.0731091, NaN, NaN, NaN, 0.0347922, "- N/A -   "
43.91, 1845.14, 0.07328959, NaN, NaN, NaN, 0.0433376, "- N/A -   "
44.03, 1850.51, 0.0734923, NaN, NaN, NaN, 0.0433376, "- N/A -   "
44.15, 1856.35, 0.07371443, NaN, NaN, NaN, 0.0335714, "- N/A -   "
44.27, 1861.24, 0.0739088, NaN, NaN, NaN, 0.0347922, "- N/A -   "
44.39, 1866.844, 0.0741198, NaN, NaN, NaN, 0.03112983, "- N/A -   "
44.51, 1871.14, 0.074292, NaN, NaN, NaN, 0.0433376, "- N/A -   "
44.63, 1876.26, 0.07448915, NaN, NaN, NaN, 0.04577916, "- N/A -   "
44.75, 1882.23, 0.0747141, NaN, NaN, NaN, 0.0335714, "- N/A -   "
44.87, 1887.47, 0.0749223, NaN, NaN, NaN, 0.03112983, "- N/A -   "
44.99, 1892.72, 0.07512502, NaN, NaN, NaN, 0.0286883, "- N/A -   "
45.11, 1897.134, 0.0753, NaN, NaN, NaN, 0.0396753, "- N/A -   "
45.23, 1901.9, 0.0754888, NaN, NaN, NaN, 0.0445584, "- N/A -   "
45.35, 1907.15, 0.0756887, NaN, NaN, NaN, 0.0445584, "- N/A -   "
45.47, 1912.99, 0.07591917, NaN, NaN, NaN, 0.0323506, "- N/A -   "
45.59, 1918.12, 0.0761135, NaN, NaN, NaN, 0.0335714, "- N/A -   "
45.71, 1922.89, 0.0763024, NaN, NaN, NaN, 0.0384545, "- N/A -   "
45.83, 1927.9, 0.0765023, NaN, NaN, NaN, 0.0384545, "- N/A -   "
45.95, 1932.43, 0.0766828, NaN, NaN, NaN, 0.04699994, "- N/A -   "
46.07, 1938.276, 0.07691047, NaN, NaN, NaN, 0.0347922, "- N/A -   "
46.19, 1943.28, 0.0771104, NaN, NaN, NaN, 0.0347922, "- N/A -   "
46.31, 1948.41, 0.07731588, NaN, NaN, NaN, 0.0323506, "- N/A -   "
46.43, 1953.18, 0.07751026, NaN, NaN, NaN, 0.0347922, "- N/A -   "
46.55, 1957.59, 0.0776963, NaN, NaN, NaN, 0.04211683, "- N/A -   "
46.67, 1962.13, 0.077899, NaN, NaN, NaN, 0.04089605, "- N/A -   "
46.79, 1965.11, 0.0781017, NaN, NaN, NaN, 0.0384545, "- N/A -   "
46.91, 2.712792, 0.0786182, NaN, NaN, NaN, -0.353415, "- N/A -   "
46.93, -2.476897, 0.07852099, NaN, NaN, NaN, -0.3338827, "- N/A -   "
46.94, 0.0, 0.07846268, NaN, NaN, NaN, -0.307026, "- N/A -   "
46.95, -2.94869, 0.07840715, NaN, NaN, NaN, -0.271623, "- N/A -   "
46.96, 0.3538424, 0.07835439, NaN, NaN, NaN, -0.237441, "- N/A -   "
46.97, -3.06663, 0.07831273, NaN, NaN, NaN, -0.206922, "- N/A -   "
46.98, 0.825632, 0.0782766, NaN, NaN, NaN, -0.177623, "- N/A -   "
46.99, -1.76921, 0.0782433, NaN, NaN, NaN, -0.141, "- N/A -   "
47, -0.94358, 0.0782183, NaN, NaN, NaN, -0.11048, "- N/A -   "
47.01, -1.29742, 0.07820444, NaN, NaN, NaN, -0.08118171, "- N/A -   "
47.03, -0.7076848, 0.0781961, NaN, NaN, NaN, -0.0128182, "- N/A -   "
47.05, -1.17947, 0.0782128, NaN, NaN, NaN, 0.0433376, "- N/A -   "
47.07, -1.41537, 0.0782544, NaN, NaN, NaN, 0.0872856, "- N/A -   "
47.09, -1.17947, 0.07832107, NaN, NaN, NaN, 0.122688, "- N/A -   "
47.11, -1.29742, 0.0784127, NaN, NaN, NaN, 0.132454, "- N/A -   "
47.13, -1.17947, 0.07850433, NaN, NaN, NaN, 0.130013, "- N/A -   "
47.15, -1.29742, 0.07859319, NaN, NaN, NaN, 0.115363, "- N/A -   "
47.17, -1.17947, 0.07866816, NaN, NaN, NaN, 0.095831, "- N/A -   "
47.19, -1.41537, 0.07873758, NaN, NaN, NaN, 0.08118171, "- N/A -   "
47.21, -1.41537, 0.0787931, NaN, NaN, NaN, 0.07141549, "- N/A -   "
47.23, -1.29742, 0.07883754, NaN, NaN, NaN, 0.0653116, "- N/A -   "
47.25, -1.29742, 0.07887919, NaN, NaN, NaN, 0.06164927, "- N/A -   "
47.27, -1.29742, 0.07892362, NaN, NaN, NaN, 0.0579869, "- N/A -   "
47.29, -1.29742, 0.0789625, NaN, NaN, NaN, 0.0543246, "- N/A -   "
47.31, -1.41537, 0.0790014, NaN, NaN, NaN, 0.0531038, "- N/A -   "
47.33, -1.29742, 0.07903469, NaN, NaN, NaN, 0.05188305, "- N/A -   "
47.35, -1.29742, 0.07907357, NaN, NaN, NaN, 0.05066227, "- N/A -   "
47.37, -1.29742, 0.07910967, NaN, NaN, NaN, 0.0482207, "- N/A -   "
47.39, -1.29742, 0.07914854, NaN, NaN, NaN, 0.04699994, "- N/A -   "
47.41, -1.29742, 0.0791902, NaN, NaN, NaN, 0.0433376, "- N/A -   "
47.43, -1.29742, 0.0792291, NaN, NaN, NaN, 0.0396753, "- N/A -   "
47.45, -1.29742, 0.07927071, NaN, NaN, NaN, 0.03601294, "- N/A -   "
47.47, -1.29742, 0.07930959, NaN, NaN, NaN, 0.0335714, "- N/A -   "
47.49, -1.29742, 0.07934569, NaN, NaN, NaN, 0.0323506, "- N/A -   "
47.51, -1.29742, 0.07937901, NaN, NaN, NaN, 0.0323506, "- N/A -   "
47.53, -1.29742, 0.07940955, NaN, NaN, NaN, 0.0335714, "- N/A -   "
47.55, -1.29742, 0.0794401, NaN, NaN, NaN, 0.0347922, "- N/A -   "
47.57, -1.29742, 0.0794762, NaN, NaN, NaN, 0.0347922, "- N/A -   "
47.59, -1.17947, 0.07950952, NaN, NaN, NaN, 0.0335714, "- N/A -   "
47.61, -1.17947, 0.07954284, NaN, NaN, NaN, 0.0347922, "- N/A -   "
47.63, -1.29742, 0.0795762, NaN, NaN, NaN, 0.0335714, "- N/A -   "
47.65, -1.29742, 0.07961226, NaN, NaN, NaN, 0.0323506, "- N/A -   "
47.67, -1.29742, 0.07964558, NaN, NaN, NaN, 0.0323506, "- N/A -   "
47.69, -1.29742, 0.07968446, NaN, NaN, NaN, 0.0274675, "- N/A -   "
47.71, -1.17947, 0.07971222, NaN, NaN, NaN, 0.0213636, "- N/A -   "
47.73, -1.29742, 0.07973721, NaN, NaN, NaN, 0.0250259, "- N/A -   "
47.75, -1.29742, 0.07976498, NaN, NaN, NaN, 0.0274675, "- N/A -   "
47.77, -1.17947, 0.0797955, NaN, NaN, NaN, 0.0299091, "- N/A -   "
47.79, -1.17947, 0.07982329, NaN, NaN, NaN, 0.03112983, "- N/A -   "
47.81, -1.17947, 0.07985661, NaN, NaN, NaN, 0.0323506, "- N/A -   "
47.83, -1.17947, 0.07988716, NaN, NaN, NaN, 0.0323506, "- N/A -   "
47.85, -1.17947, 0.07991492, NaN, NaN, NaN, 0.0347922, "- N/A -   "
47.87, -1.17947, 0.07994269, NaN, NaN, NaN, 0.0372337, "- N/A -   "
47.89, -1.17947, 0.0799705, NaN, NaN, NaN, 0.0396753, "- N/A -   "
47.91, -1.17947, 0.0799982, NaN, NaN, NaN, 0.04211683, "- N/A -   "
47.93, -1.17947, 0.08002877, NaN, NaN, NaN, 0.0433376, "- N/A -   "
47.95, -1.17947, 0.08006209, NaN, NaN, NaN, 0.0445584, "- N/A -   "
47.97, -1.17947, 0.08009263, NaN, NaN, NaN, 0.0445584, "- N/A -   "
47.99, -1.29742, 0.08012595, NaN, NaN, NaN, 0.04577916, "- N/A -   "
48.01, -1.29742, 0.08015928, NaN, NaN, NaN, 0.04577916, "- N/A -   "
48.03, -1.17947, 0.0801954, NaN, NaN, NaN, 0.0445584, "- N/A -   "
48.05, -1.17947, 0.08023702, NaN, NaN, NaN, 0.04089605, "- N/A -   "
48.07, -1.17947, 0.08027312, NaN, NaN, NaN, 0.0396753, "- N/A -   "
48.09, -1.17947, 0.08030922, NaN, NaN, NaN, 0.0372337, "- N/A -   "
48.11, -1.17947, 0.08034532, NaN, NaN, NaN, 0.0372337, "- N/A -   "
48.13, -1.17947, 0.08037864, NaN, NaN, NaN, 0.03601294, "- N/A -   "
48.15, -1.17947, 0.0804147, NaN, NaN, NaN, 0.03601294, "- N/A -   "
48.17, -1.17947, 0.08045083, NaN, NaN, NaN, 0.0335714, "- N/A -   "
48.19, -1.17947, 0.08048415, NaN, NaN, NaN, 0.0335714, "- N/A -   "
48.21, -1.17947, 0.08051748, NaN, NaN, NaN, 0.0335714, "- N/A -   "
48.23, -1.17947, 0.08055358, NaN, NaN, NaN, 0.0323506, "- N/A -   "
48.25, -1.17947, 0.0805869, NaN, NaN, NaN, 0.0323506, "- N/A -   "
48.27, -1.17947, 0.08062577, NaN, NaN, NaN, 0.03112983, "- N/A -   "
48.29, -1.06153, 0.08065909, NaN, NaN, NaN, 0.0299091, "- N/A -   "
48.31, -1.17947, 0.08069241, NaN, NaN, NaN, 0.0299091, "- N/A -   "
48.33, -1.17947, 0.08072573, NaN, NaN, NaN, 0.03112983, "- N/A -   "
48.35, -1.17947, 0.0807563, NaN, NaN, NaN, 0.03112983, "- N/A -   "
48.37, -1.17947, 0.0807896, NaN, NaN, NaN, 0.03112983, "- N/A -   "
48.39, -1.06153, 0.08082847, NaN, NaN, NaN, 0.0299091, "- N/A -   "
48.41, -1.17947, 0.0808618, NaN, NaN, NaN, 0.0299091, "- N/A -   "
48.43, -1.17947, 0.08088957, NaN, NaN, NaN, 0.03112983, "- N/A -   "
48.45, -1.17947, 0.08092011, NaN, NaN, NaN, 0.0323506, "- N/A -   "
48.47, -1.17947, 0.08095065, NaN, NaN, NaN, 0.0335714, "- N/A -   "
48.49, -1.17947, 0.0809812, NaN, NaN, NaN, 0.0347922, "- N/A -   "
48.51, -1.17947, 0.081009, NaN, NaN, NaN, 0.0372337, "- N/A -   "
48.53, -1.06153, 0.08103951, NaN, NaN, NaN, 0.0396753, "- N/A -   "
48.55, -1.06153, 0.0810645, NaN, NaN, NaN, 0.04211683, "- N/A -   "
48.563, -1.06153, 0.08108393, NaN, NaN, NaN, 0.0445584, "- N/A -   "