File: 2_Tensile_Data/Hamel_ForceTest_Bolt8_Test1.csv
Time, Load (lb), Position (in), AxialStrain (in), TransverseStrain (in), Auxiliary (), Control Out (V), Stress (psi)
0.0,1.06153,0.0, NaN, NaN, NaN,0.09094793," ""- N/A -   """
0.01,1.29742,2.2214e-05, NaN, NaN, NaN,0.0872856," ""- N/A -   """
0.02,1.65126,4.442803e-05, NaN, NaN, NaN,0.084844," ""- N/A -   """
0.03,1.88716,6.6642e-05, NaN, NaN, NaN,0.08240249," ""- N/A -   """
0.04,2.241,9.16328e-05, NaN, NaN, NaN,0.07874016," ""- N/A -   """
0.05,2.59484,0.000116624, NaN, NaN, NaN,0.0762986," ""- N/A -   """
0.11,4.246109,0.000244354, NaN, NaN, NaN,0.06287005," ""- N/A -   """
0.17,5.897373,0.000358201, NaN, NaN, NaN,0.05676616," ""- N/A -   """
0.23,7.548638,0.0004776013, NaN, NaN, NaN,0.0482207," ""- N/A -   """
0.29,9.31785,0.000608109, NaN, NaN, NaN,0.0347922," ""- N/A -   """
0.35,10.8512,0.000716402, NaN, NaN, NaN,0.0323506," ""- N/A -   """
0.41,12.2665,0.000816365, NaN, NaN, NaN,0.03112983," ""- N/A -   """
0.47,13.564,0.0009107746, NaN, NaN, NaN,0.0347922," ""- N/A -   """
0.53,14.9793,0.00100518, NaN, NaN, NaN,0.03601294," ""- N/A -   """
0.59,16.3947,0.00110515, NaN, NaN, NaN,0.03601294," ""- N/A -   """
0.65,17.8101,0.001194, NaN, NaN, NaN,0.04089605," ""- N/A -   """
0.71,18.9895,0.00128564, NaN, NaN, NaN,0.0445584," ""- N/A -   """
0.77,20.4049,0.00138282, NaN, NaN, NaN,0.04699994," ""- N/A -   """
0.83,21.93823,0.00149112, NaN, NaN, NaN,0.04211683," ""- N/A -   """
0.89,23.7074,0.00161052, NaN, NaN, NaN,0.0335714," ""- N/A -   """
0.95,25.3587,0.00171881, NaN, NaN, NaN,0.0299091," ""- N/A -   """
1.01,26.5382,0.00181322, NaN, NaN, NaN,0.0323506," ""- N/A -   """
1.07,27.95355,0.00190485, NaN, NaN, NaN,0.03601294," ""- N/A -   """
1.13,29.6048,0.00201037, NaN, NaN, NaN,0.0347922," ""- N/A -   """
1.19,31.1381,0.002113108, NaN, NaN, NaN,0.0323506," ""- N/A -   """
1.25,32.4356,0.00220752, NaN, NaN, NaN,0.0347922," ""- N/A -   """
1.31,33.73298,0.002296374, NaN, NaN, NaN,0.04089605," ""- N/A -   """
1.37,35.2663,0.00239356, NaN, NaN, NaN,0.04089605," ""- N/A -   """
1.43,36.9176,0.00250185, NaN, NaN, NaN,0.0372337," ""- N/A -   """
1.49,38.3329,0.002593486, NaN, NaN, NaN,0.04089605," ""- N/A -   """
1.55,40.10214,0.002699, NaN, NaN, NaN,0.0384545," ""- N/A -   """
1.61,41.6355,0.00280174, NaN, NaN, NaN,0.0372337," ""- N/A -   """
1.67,43.2867,0.00290448, NaN, NaN, NaN,0.03601294," ""- N/A -   """
1.73,44.93799,0.003009999, NaN, NaN, NaN,0.0335714," ""- N/A -   """
1.79,46.5893,0.003109962, NaN, NaN, NaN,0.0347922," ""- N/A -   """
1.85,48.2405,0.003209925, NaN, NaN, NaN,0.0335714," ""- N/A -   """
1.91,49.6559,0.00330711, NaN, NaN, NaN,0.0347922," ""- N/A -   """
1.97,51.543,0.0034154, NaN, NaN, NaN,0.03112983," ""- N/A -   """
2.03,52.84047,0.00350148, NaN, NaN, NaN,0.0372337," ""- N/A -   """
2.09,54.3738,0.00359312, NaN, NaN, NaN,0.04089605," ""- N/A -   """
2.15,56.02505,0.00368753, NaN, NaN, NaN,0.0433376," ""- N/A -   """
2.21,57.79426,0.00378749, NaN, NaN, NaN,0.0445584," ""- N/A -   """
2.27,59.5635,0.00389578, NaN, NaN, NaN,0.0396753," ""- N/A -   """
2.33,61.6865,0.004015183, NaN, NaN, NaN,0.03112983," ""- N/A -   """
2.39,63.2198,0.00410959, NaN, NaN, NaN,0.0347922," ""- N/A -   """
2.45,64.98906,0.00420956, NaN, NaN, NaN,0.0347922," ""- N/A -   """
2.51,66.87622,0.004315072, NaN, NaN, NaN,0.03112983," ""- N/A -   """
2.57,68.6454,0.00441781, NaN, NaN, NaN,0.0299091," ""- N/A -   """
2.63,70.41464,0.004512222, NaN, NaN, NaN,0.0323506," ""- N/A -   """
2.69,71.94796,0.00460663, NaN, NaN, NaN,0.0347922," ""- N/A -   """
2.75,73.48127,0.00468993, NaN, NaN, NaN,0.0433376," ""- N/A -   """
2.81,75.13254,0.00478434, NaN, NaN, NaN,0.04577916," ""- N/A -   """
2.87,77.0197,0.004887083, NaN, NaN, NaN,0.0433376," ""- N/A -   """
2.93,79.0248,0.004998153, NaN, NaN, NaN,0.0384545," ""- N/A -   """
2.99,81.0299,0.005106447, NaN, NaN, NaN,0.03601294," ""- N/A -   """
3.05,82.79912,0.005209187, NaN, NaN, NaN,0.0335714," ""- N/A -   """
3.11,84.68629,0.005314703, NaN, NaN, NaN,0.03112983," ""- N/A -   """
3.17,86.4555,0.00541744, NaN, NaN, NaN,0.0299091," ""- N/A -   """
3.23,88.22471,0.005520183, NaN, NaN, NaN,0.0299091," ""- N/A -   """
3.29,89.6401,0.005609039, NaN, NaN, NaN,0.0335714," ""- N/A -   """
3.35,91.2913,0.00570067, NaN, NaN, NaN,0.0384545," ""- N/A -   """
3.41,92.70671,0.00578953, NaN, NaN, NaN,0.04211683," ""- N/A -   """
3.47,94.47592,0.00588394, NaN, NaN, NaN,0.0445584," ""- N/A -   """
3.53,96.12719,0.0059839, NaN, NaN, NaN,0.04577916," ""- N/A -   """
3.59,98.13229,0.00609497, NaN, NaN, NaN,0.04089605," ""- N/A -   """
3.65,100.137,0.00621437, NaN, NaN, NaN,0.0323506," ""- N/A -   """
3.71,102.025,0.006322664, NaN, NaN, NaN,0.0286883," ""- N/A -   """
3.77,103.794,0.00641985, NaN, NaN, NaN,0.0299091," ""- N/A -   """
3.83,105.445,0.006511484, NaN, NaN, NaN,0.0335714," ""- N/A -   """
3.89,107.3322,0.00660867, NaN, NaN, NaN,0.0347922," ""- N/A -   """
3.95,109.3373,0.006708632, NaN, NaN, NaN,0.0347922," ""- N/A -   """
4.01,111.107,0.00679749, NaN, NaN, NaN,0.0396753," ""- N/A -   """
4.07,112.994,0.00689745, NaN, NaN, NaN,0.0396753," ""- N/A -   """
4.13,114.881,0.00698908, NaN, NaN, NaN,0.0433376," ""- N/A -   """
4.19,116.768,0.007089048, NaN, NaN, NaN,0.0445584," ""- N/A -   """
4.25,119.127,0.007194564, NaN, NaN, NaN,0.04089605," ""- N/A -   """
4.31,121.486,0.007308411, NaN, NaN, NaN,0.0347922," ""- N/A -   """
4.37,123.609,0.0074167, NaN, NaN, NaN,0.03112983," ""- N/A -   """
4.43,125.496,0.00751111, NaN, NaN, NaN,0.0335714," ""- N/A -   """
4.49,127.265,0.007605523, NaN, NaN, NaN,0.0372337," ""- N/A -   """
4.55,129.506,0.007708263, NaN, NaN, NaN,0.0347922," ""- N/A -   """
4.61,131.276,0.007811003, NaN, NaN, NaN,0.0347922," ""- N/A -   """
4.67,133.163,0.007908189, NaN, NaN, NaN,0.0347922," ""- N/A -   """
4.73,134.578,0.00799982, NaN, NaN, NaN,0.0384545," ""- N/A -   """
4.79,136.347,0.008091455, NaN, NaN, NaN,0.04211683," ""- N/A -   """
4.85,138.352,0.008194195, NaN, NaN, NaN,0.04089605," ""- N/A -   """
4.91,140.1216,0.008294158, NaN, NaN, NaN,0.04089605," ""- N/A -   """
4.97,142.245,0.008408005, NaN, NaN, NaN,0.03601294," ""- N/A -   """
5.03,143.896,0.008505192, NaN, NaN, NaN,0.03601294," ""- N/A -   """
5.09,145.783,0.008602377, NaN, NaN, NaN,0.0372337," ""- N/A -   """
5.15,147.67,0.008707894, NaN, NaN, NaN,0.03601294," ""- N/A -   """
5.21,149.557,0.00880786, NaN, NaN, NaN,0.03601294," ""- N/A -   """
5.27,151.68,0.00891615, NaN, NaN, NaN,0.0323506," ""- N/A -   """
5.33,153.332,0.009013336, NaN, NaN, NaN,0.0323506," ""- N/A -   """
5.39,155.219,0.009110523, NaN, NaN, NaN,0.0347922," ""- N/A -   """
5.45,156.988,0.009202156, NaN, NaN, NaN,0.0372337," ""- N/A -   """
5.51,158.7573,0.009296565, NaN, NaN, NaN,0.0396753," ""- N/A -   """
5.57,160.644,0.009393752, NaN, NaN, NaN,0.04211683," ""- N/A -   """
5.63,162.65,0.009488161, NaN, NaN, NaN,0.0433376," ""- N/A -   """
5.69,164.655,0.009596454, NaN, NaN, NaN,0.0396753," ""- N/A -   """
5.75,166.896,0.009710301, NaN, NaN, NaN,0.0335714," ""- N/A -   """
5.81,168.783,0.00981304, NaN, NaN, NaN,0.0323506," ""- N/A -   """
5.87,170.906,0.009913004, NaN, NaN, NaN,0.0335714," ""- N/A -   """
5.93,172.793,0.010013, NaN, NaN, NaN,0.0323506," ""- N/A -   """
5.99,174.798,0.0101213, NaN, NaN, NaN,0.0299091," ""- N/A -   """
6.05,176.567,0.0102129, NaN, NaN, NaN,0.0323506," ""- N/A -   """
6.11,178.337,0.0103017, NaN, NaN, NaN,0.0372337," ""- N/A -   """
6.17,179.752,0.0103823, NaN, NaN, NaN,0.04577916," ""- N/A -   """
6.23,181.639,0.0104795, NaN, NaN, NaN,0.04699994," ""- N/A -   """
6.29,183.644,0.0105822, NaN, NaN, NaN,0.04577916," ""- N/A -   """
6.35,185.885,0.0106988, NaN, NaN, NaN,0.0384545," ""- N/A -   """
6.41,188.008,0.0108099, NaN, NaN, NaN,0.0347922," ""- N/A -   """
6.47,190.013,0.0109154, NaN, NaN, NaN,0.03112983," ""- N/A -   """
6.53,192.136,0.0110209, NaN, NaN, NaN,0.0286883," ""- N/A -   """
6.59,194.024,0.0111209, NaN, NaN, NaN,0.0299091," ""- N/A -   """
6.65,196.0287,0.0112236, NaN, NaN, NaN,0.0274675," ""- N/A -   """
6.71,197.562,0.0113125, NaN, NaN, NaN,0.0323506," ""- N/A -   """
6.77,199.095,0.01139579, NaN, NaN, NaN,0.0396753," ""- N/A -   """
6.83,200.865,0.0114874, NaN, NaN, NaN,0.0445584," ""- N/A -   """
6.89,202.87,0.0115874, NaN, NaN, NaN,0.0433376," ""- N/A -   """
6.95,204.875,0.0116873, NaN, NaN, NaN,0.0433376," ""- N/A -   """
7.01,206.9978,0.0117901, NaN, NaN, NaN,0.04211683," ""- N/A -   """
7.07,209.357,0.0119067, NaN, NaN, NaN,0.0347922," ""- N/A -   """
7.13,211.598,0.0120206, NaN, NaN, NaN,0.0286883," ""- N/A -   """
7.19,213.485,0.0121205, NaN, NaN, NaN,0.0286883," ""- N/A -   """
7.25,215.372,0.0122149, NaN, NaN, NaN,0.03112983," ""- N/A -   """
7.31,217.141,0.0123093, NaN, NaN, NaN,0.0347922," ""- N/A -   """
7.37,219.1464,0.0124065, NaN, NaN, NaN,0.0347922," ""- N/A -   """
7.43,221.152,0.0125037, NaN, NaN, NaN,0.03601294," ""- N/A -   """
7.49,223.039,0.0125953, NaN, NaN, NaN,0.0396753," ""- N/A -   """
7.55,224.69,0.012687, NaN, NaN, NaN,0.0445584," ""- N/A -   """
7.61,226.577,0.0127814, NaN, NaN, NaN,0.04699994," ""- N/A -   """
7.67,228.936,0.0128952, NaN, NaN, NaN,0.04089605," ""- N/A -   """
7.73,231.413,0.0130119, NaN, NaN, NaN,0.0323506," ""- N/A -   """
7.79,233.418,0.0131202, NaN, NaN, NaN,0.0299091," ""- N/A -   """
7.85,235.3052,0.0132118, NaN, NaN, NaN,0.0323506," ""- N/A -   """
7.91,237.074,0.0133034, NaN, NaN, NaN,0.03601294," ""- N/A -   """
7.97,239.315,0.0134117, NaN, NaN, NaN,0.0335714," ""- N/A -   """
8.03,241.674,0.0135256, NaN, NaN, NaN,0.0286883," ""- N/A -   """
8.08,243.207,0.0136061, NaN, NaN, NaN,0.0299091," ""- N/A -   """
8.09,243.56,0.01362, NaN, NaN, NaN,0.0299091," ""- N/A -   """
8.1,243.678,0.0136339, NaN, NaN, NaN,0.03112983," ""- N/A -   """
8.12,244.2674,0.0136588, NaN, NaN, NaN,0.0347922," ""- N/A -   """
8.14,244.857,0.0136866, NaN, NaN, NaN,0.0372337," ""- N/A -   """
8.16,245.21,0.0137116, NaN, NaN, NaN,0.04089605," ""- N/A -   """
8.18,245.6813,0.0137394, NaN, NaN, NaN,0.0433376," ""- N/A -   """
8.2,246.388,0.0137671, NaN, NaN, NaN,0.04577916," ""- N/A -   """
8.22,246.9774,0.0138032, NaN, NaN, NaN,0.0445584," ""- N/A -   """
8.24,247.92,0.0138421, NaN, NaN, NaN,0.04211683," ""- N/A -   """
8.26,248.627,0.0138782, NaN, NaN, NaN,0.04089605," ""- N/A -   """
8.28,249.334,0.0139115, NaN, NaN, NaN,0.04089605," ""- N/A -   """
8.3,249.923,0.0139421, NaN, NaN, NaN,0.04211683," ""- N/A -   """
8.32,250.63,0.0139782, NaN, NaN, NaN,0.04089605," ""- N/A -   """
8.34,251.337,0.0140115, NaN, NaN, NaN,0.04089605," ""- N/A -   """
8.36,251.926,0.014042, NaN, NaN, NaN,0.04211683," ""- N/A -   """
8.38,252.633,0.0140781, NaN, NaN, NaN,0.04089605," ""- N/A -   """
8.4,253.34,0.0141142, NaN, NaN, NaN,0.04089605," ""- N/A -   """
8.42,254.047,0.0141448, NaN, NaN, NaN,0.04089605," ""- N/A -   """
8.44,254.7539,0.0141781, NaN, NaN, NaN,0.04089605," ""- N/A -   """
8.46,255.461,0.0142086, NaN, NaN, NaN,0.04211683," ""- N/A -   """
8.48,256.05,0.01424196, NaN, NaN, NaN,0.0433376," ""- N/A -   """
8.5,256.639,0.0142753, NaN, NaN, NaN,0.0433376," ""- N/A -   """
8.52,257.346,0.0143086, NaN, NaN, NaN,0.04211683," ""- N/A -   """
8.54,258.171,0.0143475, NaN, NaN, NaN,0.0396753," ""- N/A -   """
8.56,259.113,0.0143864, NaN, NaN, NaN,0.0384545," ""- N/A -   """
8.58,259.938,0.014428, NaN, NaN, NaN,0.0347922," ""- N/A -   """
8.6,260.6452,0.0144641, NaN, NaN, NaN,0.0323506," ""- N/A -   """
8.62,261.47,0.0145002, NaN, NaN, NaN,0.03112983," ""- N/A -   """
8.64,262.059,0.0145335, NaN, NaN, NaN,0.03112983," ""- N/A -   """
8.66,262.648,0.01456684, NaN, NaN, NaN,0.03112983," ""- N/A -   """
8.68,263.473,0.0146002, NaN, NaN, NaN,0.03112983," ""- N/A -   """
8.7,264.0622,0.0146335, NaN, NaN, NaN,0.0323506," ""- N/A -   """
8.72,264.769,0.014664, NaN, NaN, NaN,0.0323506," ""- N/A -   """
8.74,265.358,0.0146973, NaN, NaN, NaN,0.0323506," ""- N/A -   """
8.76,265.9474,0.0147307, NaN, NaN, NaN,0.0323506," ""- N/A -   """
8.78,266.7722,0.0147612, NaN, NaN, NaN,0.0335714," ""- N/A -   """
8.8,267.479,0.0147945, NaN, NaN, NaN,0.0335714," ""- N/A -   """
8.82,268.068,0.0148279, NaN, NaN, NaN,0.0347922," ""- N/A -   """
8.84,268.54,0.0148556, NaN, NaN, NaN,0.03601294," ""- N/A -   """
8.86,269.1287,0.0148862, NaN, NaN, NaN,0.0384545," ""- N/A -   """
8.88,269.7178,0.0149139, NaN, NaN, NaN,0.0396753," ""- N/A -   """
8.9,270.425,0.0149473, NaN, NaN, NaN,0.0396753," ""- N/A -   """
8.92,271.132,0.0149778, NaN, NaN, NaN,0.04089605," ""- N/A -   """
8.94,271.7209,0.01501112, NaN, NaN, NaN,0.04211683," ""- N/A -   """
8.96,272.31,0.0150417, NaN, NaN, NaN,0.04211683," ""- N/A -   """
8.98,273.017,0.01507221, NaN, NaN, NaN,0.0433376," ""- N/A -   """
9,273.606,0.0151028, NaN, NaN, NaN,0.04577916," ""- N/A -   """
9.02,274.431,0.0151361, NaN, NaN, NaN,0.04577916," ""- N/A -   """
9.04,275.138,0.0151694, NaN, NaN, NaN,0.0445584," ""- N/A -   """
9.06,275.8448,0.0152055, NaN, NaN, NaN,0.0433376," ""- N/A -   """
9.08,276.67,0.01524159, NaN, NaN, NaN,0.04211683," ""- N/A -   """
9.1,277.377,0.0152832, NaN, NaN, NaN,0.0396753," ""- N/A -   """
9.12,278.2013,0.01531934, NaN, NaN, NaN,0.0372337," ""- N/A -   """
9.14,279.0261,0.0153582, NaN, NaN, NaN,0.0347922," ""- N/A -   """
9.16,279.733,0.0153943, NaN, NaN, NaN,0.0335714," ""- N/A -   """
9.18,280.44,0.0154276, NaN, NaN, NaN,0.0335714," ""- N/A -   """
9.2,281.0291,0.01546373, NaN, NaN, NaN,0.0335714," ""- N/A -   """
9.22,281.736,0.0154971, NaN, NaN, NaN,0.0323506," ""- N/A -   """
9.24,282.325,0.0155304, NaN, NaN, NaN,0.0323506," ""- N/A -   """
9.26,283.15,0.0155637, NaN, NaN, NaN,0.0323506," ""- N/A -   """
9.28,283.857,0.0155998, NaN, NaN, NaN,0.0323506," ""- N/A -   """
9.3,284.5639,0.0156331, NaN, NaN, NaN,0.0323506," ""- N/A -   """
9.32,285.271,0.0156637, NaN, NaN, NaN,0.0323506," ""- N/A -   """
9.34,285.86,0.015697, NaN, NaN, NaN,0.0323506," ""- N/A -   """
9.36,286.8026,0.0157359, NaN, NaN, NaN,0.03112983," ""- N/A -   """
9.38,287.51,0.01577195, NaN, NaN, NaN,0.0299091," ""- N/A -   """
9.4,288.217,0.0158053, NaN, NaN, NaN,0.0299091," ""- N/A -   """
9.42,288.9235,0.0158386, NaN, NaN, NaN,0.0286883," ""- N/A -   """
9.44,289.5126,0.0158719, NaN, NaN, NaN,0.0286883," ""- N/A -   """
9.46,290.22,0.0159025, NaN, NaN, NaN,0.0299091," ""- N/A -   """
9.48,290.8087,0.015933, NaN, NaN, NaN,0.03112983," ""- N/A -   """
9.5,291.398,0.01596077, NaN, NaN, NaN,0.0335714," ""- N/A -   """
9.52,291.8691,0.0159885, NaN, NaN, NaN,0.03601294," ""- N/A -   """
9.54,292.34,0.0160135, NaN, NaN, NaN,0.0396753," ""- N/A -   """
9.56,292.812,0.0160385, NaN, NaN, NaN,0.0433376," ""- N/A -   """
9.58,293.401,0.0160691, NaN, NaN, NaN,0.0445584," ""- N/A -   """
9.6,294.226,0.0161024, NaN, NaN, NaN,0.04577916," ""- N/A -   """
9.62,294.9326,0.0161357, NaN, NaN, NaN,0.04577916," ""- N/A -   """
9.64,295.6396,0.016169, NaN, NaN, NaN,0.0445584," ""- N/A -   """
9.66,296.2287,0.0162023, NaN, NaN, NaN,0.04577916," ""- N/A -   """
9.67,296.7,0.016219, NaN, NaN, NaN,0.0445584," ""- N/A -   """
9.68,297.0535,0.0162384, NaN, NaN, NaN,0.0433376," ""- N/A -   """
9.8,301.7665,0.01645781, NaN, NaN, NaN,0.03601294," ""- N/A -   """
9.92,306.008,0.0166633, NaN, NaN, NaN,0.0323506," ""- N/A -   """
10.04,310.25,0.016866, NaN, NaN, NaN,0.03112983," ""- N/A -   """
10.16,314.02,0.01705481, NaN, NaN, NaN,0.03601294," ""- N/A -   """
10.28,317.9087,0.0172381, NaN, NaN, NaN,0.0433376," ""- N/A -   """
10.4,322.15,0.017438, NaN, NaN, NaN,0.0433376," ""- N/A -   """
10.52,327.099,0.0176657, NaN, NaN, NaN,0.03112983," ""- N/A -   """
10.64,331.341,0.017874, NaN, NaN, NaN,0.0286883," ""- N/A -   """
10.76,335.1113,0.0180572, NaN, NaN, NaN,0.0347922," ""- N/A -   """
10.88,339.353,0.0182571, NaN, NaN, NaN,0.0347922," ""- N/A -   """
11,343.123,0.0184349, NaN, NaN, NaN,0.0445584," ""- N/A -   """
11.12,347.954,0.018657, NaN, NaN, NaN,0.03601294," ""- N/A -   """
11.24,352.196,0.0188597, NaN, NaN, NaN,0.0347922," ""- N/A -   """
11.36,356.32,0.01905407, NaN, NaN, NaN,0.0372337," ""- N/A -   """
11.48,360.915,0.0192596, NaN, NaN, NaN,0.0335714," ""- N/A -   """
11.6,364.686,0.01944, NaN, NaN, NaN,0.04211683," ""- N/A -   """
11.72,369.163,0.0196455, NaN, NaN, NaN,0.0396753," ""- N/A -   """
11.84,373.64,0.0198538, NaN, NaN, NaN,0.0372337," ""- N/A -   """
11.96,378.0,0.0200593, NaN, NaN, NaN,0.0335714," ""- N/A -   """
12.08,382.5952,0.0202703, NaN, NaN, NaN,0.0299091," ""- N/A -   """
12.2,386.719,0.0204619, NaN, NaN, NaN,0.0323506," ""- N/A -   """
12.32,390.725,0.0206479, NaN, NaN, NaN,0.0384545," ""- N/A -   """
12.44,394.967,0.0208395, NaN, NaN, NaN,0.04211683," ""- N/A -   """
12.56,399.916,0.0210617, NaN, NaN, NaN,0.0335714," ""- N/A -   """
12.68,404.1574,0.0212588, NaN, NaN, NaN,0.0347922," ""- N/A -   """
12.8,408.87,0.0214671, NaN, NaN, NaN,0.03112983," ""- N/A -   """
12.92,412.877,0.0216503, NaN, NaN, NaN,0.0384545," ""- N/A -   """
13.04,416.765,0.0218336, NaN, NaN, NaN,0.04699994," ""- N/A -   """
13.16,421.713,0.02204741, NaN, NaN, NaN,0.0396753," ""- N/A -   """
13.28,426.4265,0.022264, NaN, NaN, NaN,0.0323506," ""- N/A -   """
13.4,431.14,0.0224778, NaN, NaN, NaN,0.0274675," ""- N/A -   """
13.52,435.4991,0.0226666, NaN, NaN, NaN,0.0323506," ""- N/A -   """
13.64,439.27,0.0228416, NaN, NaN, NaN,0.04211683," ""- N/A -   """
13.76,443.629,0.0230332, NaN, NaN, NaN,0.04577916," ""- N/A -   """
13.88,448.224,0.0232331, NaN, NaN, NaN,0.04577916," ""- N/A -   """
14,453.527,0.0234663, NaN, NaN, NaN,0.03112983," ""- N/A -   """
14.12,458.0039,0.0236607, NaN, NaN, NaN,0.0347922," ""- N/A -   """
14.24,462.3635,0.0238551, NaN, NaN, NaN,0.03601294," ""- N/A -   """
14.36,466.4874,0.02403834, NaN, NaN, NaN,0.0433376," ""- N/A -   """
14.48,471.2004,0.0242466, NaN, NaN, NaN,0.04089605," ""- N/A -   """
14.6,476.5026,0.0244743, NaN, NaN, NaN,0.0274675," ""- N/A -   """
14.72,480.627,0.0246603, NaN, NaN, NaN,0.0347922," ""- N/A -   """
14.84,485.5752,0.0248714, NaN, NaN, NaN,0.0299091," ""- N/A -   """
14.96,489.346,0.0250435, NaN, NaN, NaN,0.04211683," ""- N/A -   """
15.08,494.294,0.025249, NaN, NaN, NaN,0.0396753," ""- N/A -   """
15.2,499.007,0.0254545, NaN, NaN, NaN,0.0372337," ""- N/A -   """
15.32,503.72,0.0256544, NaN, NaN, NaN,0.03601294," ""- N/A -   """
15.44,508.433,0.0258627, NaN, NaN, NaN,0.0335714," ""- N/A -   """
15.56,512.9109,0.0260543, NaN, NaN, NaN,0.03601294," ""- N/A -   """
15.68,517.285,0.0262514, NaN, NaN, NaN,0.0372337," ""- N/A -   """
15.8,521.78,0.0264375, NaN, NaN, NaN,0.0433376," ""- N/A -   """
15.92,526.747,0.02664849, NaN, NaN, NaN,0.0384545," ""- N/A -   """
16.04,531.7153,0.0268595, NaN, NaN, NaN,0.0335714," ""- N/A -   """
16.16,536.4465,0.0270678, NaN, NaN, NaN,0.0299091," ""- N/A -   """
16.28,541.296,0.0272677, NaN, NaN, NaN,0.0299091," ""- N/A -   """
16.4,545.081,0.0274371, NaN, NaN, NaN,0.0433376," ""- N/A -   """
16.52,549.9305,0.027637, NaN, NaN, NaN,0.0433376," ""- N/A -   """
16.64,554.8983,0.0278536, NaN, NaN, NaN,0.03601294," ""- N/A -   """
16.76,560.103,0.0280674, NaN, NaN, NaN,0.0299091," ""- N/A -   """
16.88,564.716,0.0282701, NaN, NaN, NaN,0.0299091," ""- N/A -   """
17,568.7371,0.028445, NaN, NaN, NaN,0.0396753," ""- N/A -   """
17.12,573.3501,0.0286366, NaN, NaN, NaN,0.0445584," ""- N/A -   """
17.24,578.318,0.0288421, NaN, NaN, NaN,0.04211683," ""- N/A -   """
17.36,583.995,0.0290726, NaN, NaN, NaN,0.0286883," ""- N/A -   """
17.48,588.7266,0.0292725, NaN, NaN, NaN,0.0286883," ""- N/A -   """
17.6,592.9847,0.02945856, NaN, NaN, NaN,0.0347922," ""- N/A -   """
17.72,597.598,0.0296446, NaN, NaN, NaN,0.04089605," ""- N/A -   """
17.84,601.974,0.0298306, NaN, NaN, NaN,0.04699994," ""- N/A -   """
17.96,607.533,0.0300583, NaN, NaN, NaN,0.03601294," ""- N/A -   """
18.08,612.5011,0.030261, NaN, NaN, NaN,0.0335714," ""- N/A -   """
18.2,617.2323,0.0304582, NaN, NaN, NaN,0.03601294," ""- N/A -   """
18.32,622.082,0.0306581, NaN, NaN, NaN,0.0347922," ""- N/A -   """
18.44,626.4582,0.0308414, NaN, NaN, NaN,0.0433376," ""- N/A -   """
18.56,631.544,0.0310496, NaN, NaN, NaN,0.0384545," ""- N/A -   """
18.68,636.3938,0.0312523, NaN, NaN, NaN,0.0372337," ""- N/A -   """
18.8,641.48,0.0314606, NaN, NaN, NaN,0.0335714," ""- N/A -   """
18.92,646.5659,0.0316716, NaN, NaN, NaN,0.0286883," ""- N/A -   """
19.04,651.2972,0.0318688, NaN, NaN, NaN,0.0299091," ""- N/A -   """
19.16,655.3187,0.0320382, NaN, NaN, NaN,0.0433376," ""- N/A -   """
19.28,660.1682,0.0322325, NaN, NaN, NaN,0.04577916," ""- N/A -   """
19.4,665.8457,0.0324575, NaN, NaN, NaN,0.03601294," ""- N/A -   """
19.52,671.05,0.0326657, NaN, NaN, NaN,0.0323506," ""- N/A -   """
19.64,676.0179,0.0328684, NaN, NaN, NaN,0.0299091," ""- N/A -   """
19.76,680.276,0.0330489, NaN, NaN, NaN,0.0384545," ""- N/A -   """
19.88,684.7707,0.0332322, NaN, NaN, NaN,0.04577916," ""- N/A -   """
20,690.3299,0.0334488, NaN, NaN, NaN,0.0384545," ""- N/A -   """
20.12,695.7708,0.0336626, NaN, NaN, NaN,0.0323506," ""- N/A -   """
20.24,700.8569,0.0338736, NaN, NaN, NaN,0.0286883," ""- N/A -   """
20.36,705.7064,0.0340652, NaN, NaN, NaN,0.03112983," ""- N/A -   """
20.48,709.9645,0.03423735, NaN, NaN, NaN,0.0433376," ""- N/A -   """
20.6,714.932,0.0344317, NaN, NaN, NaN,0.04577916," ""- N/A -   """
20.72,720.491,0.0346511, NaN, NaN, NaN,0.0384545," ""- N/A -   """
20.84,726.051,0.03487323, NaN, NaN, NaN,0.0286883," ""- N/A -   """
20.96,730.545,0.03505927, NaN, NaN, NaN,0.0335714," ""- N/A -   """
21.08,735.395,0.03524809, NaN, NaN, NaN,0.0384545," ""- N/A -   """
21.2,740.2444,0.03543691, NaN, NaN, NaN,0.0433376," ""- N/A -   """
21.32,745.6853,0.0356535, NaN, NaN, NaN,0.0372337," ""- N/A -   """
21.44,751.2445,0.0358701, NaN, NaN, NaN,0.0286883," ""- N/A -   """
21.56,755.7392,0.0360506, NaN, NaN, NaN,0.0372337," ""- N/A -   """
21.68,761.298,0.0362699, NaN, NaN, NaN,0.03112983," ""- N/A -   """
21.8,765.9113,0.0364532, NaN, NaN, NaN,0.0384545," ""- N/A -   """
21.92,770.6426,0.03663924, NaN, NaN, NaN,0.0433376," ""- N/A -   """
22.04,776.0835,0.0368531, NaN, NaN, NaN,0.0372337," ""- N/A -   """
22.16,781.17,0.0370558, NaN, NaN, NaN,0.0372337," ""- N/A -   """
22.28,786.3739,0.0372612, NaN, NaN, NaN,0.0347922," ""- N/A -   """
22.4,791.2234,0.0374556, NaN, NaN, NaN,0.03601294," ""- N/A -   """
22.52,796.191,0.0376528, NaN, NaN, NaN,0.0384545," ""- N/A -   """
22.64,800.804,0.0378416, NaN, NaN, NaN,0.04211683," ""- N/A -   """
22.76,806.363,0.0380554, NaN, NaN, NaN,0.0372337," ""- N/A -   """
22.88,811.686,0.03826364, NaN, NaN, NaN,0.0323506," ""- N/A -   """
23,816.772,0.0384663, NaN, NaN, NaN,0.0323506," ""- N/A -   """
23.12,821.858,0.0386663, NaN, NaN, NaN,0.03112983," ""- N/A -   """
23.24,825.8797,0.0388357, NaN, NaN, NaN,0.0445584," ""- N/A -   """
23.36,831.0841,0.03903558, NaN, NaN, NaN,0.04577916," ""- N/A -   """
23.48,836.8798,0.0392605, NaN, NaN, NaN,0.0335714," ""- N/A -   """
23.6,842.084,0.03946598, NaN, NaN, NaN,0.03112983," ""- N/A -   """
23.72,847.052,0.0396659, NaN, NaN, NaN,0.03112983," ""- N/A -   """
23.84,851.3101,0.03983806, NaN, NaN, NaN,0.0433376," ""- N/A -   """
23.96,856.3961,0.04004076, NaN, NaN, NaN,0.04211683," ""- N/A -   """
24.08,861.7188,0.04024902, NaN, NaN, NaN,0.0384545," ""- N/A -   """
24.2,867.5146,0.0404739, NaN, NaN, NaN,0.0274675," ""- N/A -   """
24.32,872.3641,0.0406655, NaN, NaN, NaN,0.03112983," ""- N/A -   """
24.44,877.214,0.0408571, NaN, NaN, NaN,0.0347922," ""- N/A -   """
24.56,881.827,0.04104317, NaN, NaN, NaN,0.04089605," ""- N/A -   """
24.68,886.676,0.04123199, NaN, NaN, NaN,0.04577916," ""- N/A -   """
24.8,892.7084,0.04145968, NaN, NaN, NaN,0.0335714," ""- N/A -   """
24.92,897.4396,0.0416541, NaN, NaN, NaN,0.03601294," ""- N/A -   """
25.04,902.8805,0.0418623, NaN, NaN, NaN,0.0335714," ""- N/A -   """
25.16,907.8483,0.0420567, NaN, NaN, NaN,0.0347922," ""- N/A -   """
25.28,912.4613,0.0422427, NaN, NaN, NaN,0.04089605," ""- N/A -   """
25.4,917.784,0.04244543, NaN, NaN, NaN,0.0396753," ""- N/A -   """
25.52,923.225,0.0426565, NaN, NaN, NaN,0.03601294," ""- N/A -   """
25.64,928.5475,0.0428675, NaN, NaN, NaN,0.0299091," ""- N/A -   """
25.76,933.515,0.0430619, NaN, NaN, NaN,0.0323506," ""- N/A -   """
25.88,938.6014,0.043259, NaN, NaN, NaN,0.0335714," ""- N/A -   """
26,942.9778,0.0434423, NaN, NaN, NaN,0.04211683," ""- N/A -   """
26.12,947.946,0.04363388, NaN, NaN, NaN,0.04577916," ""- N/A -   """
26.24,953.978,0.04386157, NaN, NaN, NaN,0.0335714," ""- N/A -   """
26.36,959.064,0.0440615, NaN, NaN, NaN,0.0347922," ""- N/A -   """
26.48,964.6231,0.04427253, NaN, NaN, NaN,0.0286883," ""- N/A -   """
26.6,968.763,0.0444419, NaN, NaN, NaN,0.04211683," ""- N/A -   """
26.72,973.4942,0.04463351, NaN, NaN, NaN,0.04577916," ""- N/A -   """
26.84,979.29,0.04485287, NaN, NaN, NaN,0.0384545," ""- N/A -   """
26.843,979.527,0.0448584, NaN, NaN, NaN,0.0372337," ""- N/A -   """