File: 2_Tensile_Data/Hamel_ForceTest_Bolt9_Test11.csv
Time, Load (lb), Position (in), AxialStrain (in), TransverseStrain (in), Auxiliary (), Control Out (V), Stress (psi)
0.0, 14.0357, 0.0, NaN, NaN, NaN, -0.007935055, "- N/A -   "
0.01, 14.0357, 0.0, NaN, NaN, NaN, -6.103888E-4, "- N/A -   "
0.02, 14.0357, 0.0, NaN, NaN, NaN, 0.007935055, "- N/A -   "
0.03, 14.0357, 2.776752E-6, NaN, NaN, NaN, 0.0262467, "- N/A -   "
0.04, 14.0357, 8.330256E-6, NaN, NaN, NaN, 0.0445584, "- N/A -   "
0.05, 14.1537, 1.94373e-05, NaN, NaN, NaN, 0.0579869, "- N/A -   "
0.06, 14.5075, 3.60978e-05, NaN, NaN, NaN, 0.07141549, "- N/A -   "
0.07, 14.9793, 5.83118e-05, NaN, NaN, NaN, 0.08118171, "- N/A -   "
0.08, 15.3332, 8.05258E-5, NaN, NaN, NaN, 0.0897272, "- N/A -   "
0.09, 15.805, 0.000108293, NaN, NaN, NaN, 0.09705182, "- N/A -   "
0.1, 16.3947, 1.388376E-4, NaN, NaN, NaN, 0.09949338, "- N/A -   "
0.11, 17.1024, 0.000172159, NaN, NaN, NaN, 0.09338949, "- N/A -   "
0.12, 17.5742, 0.000202703, NaN, NaN, NaN, 0.0872856, "- N/A -   "
0.13, 18.046, 0.000227694, NaN, NaN, NaN, 0.08240249, "- N/A -   "
0.14, 18.3998, 0.000255461, NaN, NaN, NaN, 0.07874016, "- N/A -   "
0.15, 18.8716, 2.776752E-4, NaN, NaN, NaN, 0.0750778, "- N/A -   "
0.16, 19.1075, 0.000302666, NaN, NaN, NaN, 0.07263627, "- N/A -   "
0.17, 19.4613, 3.221032E-4, NaN, NaN, NaN, 0.0701947, "- N/A -   "
0.18, 19.8152, 0.000344317, NaN, NaN, NaN, 0.06775316, "- N/A -   "
0.19, 20.169, 0.000366531, NaN, NaN, NaN, 0.06653238, "- N/A -   "
0.2, 20.4049, 0.000383192, NaN, NaN, NaN, 0.0653116, "- N/A -   "
0.21, 20.7588, 0.000402629, NaN, NaN, NaN, 0.0640908, "- N/A -   "
0.22, 20.99465, 0.000422066, NaN, NaN, NaN, 0.06287005, "- N/A -   "
0.23, 21.3485, 4.387268E-4, NaN, NaN, NaN, 0.06287005, "- N/A -   "
0.24, 21.5844, 0.000458164, NaN, NaN, NaN, 0.06287005, "- N/A -   "
0.25, 21.93823, 0.000474825, NaN, NaN, NaN, 0.06164927, "- N/A -   "
0.26, 22.1741, 4.942618E-4, NaN, NaN, NaN, 0.0604285, "- N/A -   "
0.27, 22.41, 5.136991E-4, NaN, NaN, NaN, 0.0592077, "- N/A -   "
0.28, 22.7639, 0.000533136, NaN, NaN, NaN, 0.0579869, "- N/A -   "
0.29, 23.1177, 5.525736E-4, NaN, NaN, NaN, 0.05676616, "- N/A -   "
0.3, 23.3536, 5.747876E-4, NaN, NaN, NaN, 0.0543246, "- N/A -   "
0.31, 23.7074, 5.942249E-4, NaN, NaN, NaN, 0.0531038, "- N/A -   "
0.32, 24.0613, 6.164389E-4, NaN, NaN, NaN, 0.05066227, "- N/A -   "
0.33, 24.29718, 0.000635876, NaN, NaN, NaN, 0.0494415, "- N/A -   "
0.34, 24.65102, 0.00065809, NaN, NaN, NaN, 0.0482207, "- N/A -   "
0.35, 24.8869, 0.000677527, NaN, NaN, NaN, 0.04577916, "- N/A -   "
0.36, 25.1228, 0.000694188, NaN, NaN, NaN, 0.04577916, "- N/A -   "
0.37, 25.3587, 7.108485E-4, NaN, NaN, NaN, 0.04577916, "- N/A -   "
0.38, 25.5946, 7.302857E-4, NaN, NaN, NaN, 0.0445584, "- N/A -   "
0.39, 25.8305, 0.000746946, NaN, NaN, NaN, 0.0445584, "- N/A -   "
0.4, 26.0664, 0.000763607, NaN, NaN, NaN, 0.04577916, "- N/A -   "
0.41, 26.4202, 0.000780267, NaN, NaN, NaN, 0.0445584, "- N/A -   "
0.42, 26.6561, 7.997045E-4, NaN, NaN, NaN, 0.0445584, "- N/A -   "
0.43, 26.892, 8.16365E-4, NaN, NaN, NaN, 0.0433376, "- N/A -   "
0.44, 27.1279, 8.358023E-4, NaN, NaN, NaN, 0.04211683, "- N/A -   "
0.45, 27.3638, 8.524628E-4, NaN, NaN, NaN, 0.04211683, "- N/A -   "
0.46, 27.5997, 0.0008719, NaN, NaN, NaN, 0.04211683, "- N/A -   "
0.47, 27.95355, 8.885606E-4, NaN, NaN, NaN, 0.04089605, "- N/A -   "
0.48, 28.3074, 0.000907998, NaN, NaN, NaN, 0.0396753, "- N/A -   "
0.49, 28.54329, 9.274351E-4, NaN, NaN, NaN, 0.0384545, "- N/A -   "
0.5, 28.7792, 9.440956E-4, NaN, NaN, NaN, 0.0384545, "- N/A -   "
0.51, 29.0151, 9.635329E-4, NaN, NaN, NaN, 0.0372337, "- N/A -   "
0.54, 29.9587, 0.00102184, NaN, NaN, NaN, 0.0335714, "- N/A -   "
0.57, 30.6663, 0.001074603, NaN, NaN, NaN, 0.0323506, "- N/A -   "
0.6, 31.374, 0.001130138, NaN, NaN, NaN, 0.0299091, "- N/A -   "
0.63, 32.1997, 0.00118012, NaN, NaN, NaN, 0.03112983, "- N/A -   "
0.66, 32.9073, 0.00122732, NaN, NaN, NaN, 0.0323506, "- N/A -   "
0.69, 33.61503, 0.00127731, NaN, NaN, NaN, 0.0323506, "- N/A -   "
0.72, 34.2048, 0.00132173, NaN, NaN, NaN, 0.0347922, "- N/A -   "
0.75, 34.9125, 0.00136339, NaN, NaN, NaN, 0.0372337, "- N/A -   "
0.78, 35.6201, 0.00141059, NaN, NaN, NaN, 0.0396753, "- N/A -   "
0.81, 36.2099, 0.001455018, NaN, NaN, NaN, 0.04211683, "- N/A -   "
0.84, 37.0355, 0.00150222, NaN, NaN, NaN, 0.04211683, "- N/A -   "
0.87, 37.6252, 0.00154665, NaN, NaN, NaN, 0.0445584, "- N/A -   "
0.9, 38.5688, 0.001599409, NaN, NaN, NaN, 0.0433376, "- N/A -   "
0.93, 39.3945, 0.00164939, NaN, NaN, NaN, 0.0433376, "- N/A -   "
0.96, 40.10214, 0.0016966, NaN, NaN, NaN, 0.0445584, "- N/A -   "
0.99, 40.9278, 0.00174935, NaN, NaN, NaN, 0.0433376, "- N/A -   "
1.02, 41.9893, 0.00180767, NaN, NaN, NaN, 0.04089605, "- N/A -   "
1.05, 42.8149, 0.00186042, NaN, NaN, NaN, 0.0384545, "- N/A -   "
1.08, 43.87646, 0.00192151, NaN, NaN, NaN, 0.0347922, "- N/A -   "
1.11, 44.82, 0.00197982, NaN, NaN, NaN, 0.03112983, "- N/A -   "
1.14, 45.76362, 0.00203536, NaN, NaN, NaN, 0.0274675, "- N/A -   "
1.17, 46.4713, 0.00207979, NaN, NaN, NaN, 0.0299091, "- N/A -   "
1.2, 47.4149, 0.00212977, NaN, NaN, NaN, 0.0299091, "- N/A -   "
1.23, 48.2405, 0.00217975, NaN, NaN, NaN, 0.0299091, "- N/A -   "
1.26, 48.9482, 0.002226955, NaN, NaN, NaN, 0.03112983, "- N/A -   "
1.29, 49.6559, 0.002271383, NaN, NaN, NaN, 0.0335714, "- N/A -   "
1.32, 50.5995, 0.00232136, NaN, NaN, NaN, 0.0347922, "- N/A -   "
1.35, 51.4251, 0.00236857, NaN, NaN, NaN, 0.03601294, "- N/A -   "
1.38, 52.1328, 0.00241577, NaN, NaN, NaN, 0.03601294, "- N/A -   "
1.41, 53.19431, 0.00246853, NaN, NaN, NaN, 0.0347922, "- N/A -   "
1.44, 54.0199, 0.00251296, NaN, NaN, NaN, 0.0372337, "- N/A -   "
1.47, 54.8456, 0.00256017, NaN, NaN, NaN, 0.0384545, "- N/A -   "
1.5, 55.6712, 0.00260459, NaN, NaN, NaN, 0.04089605, "- N/A -   "
1.53, 56.4968, 0.002651798, NaN, NaN, NaN, 0.04211683, "- N/A -   "
1.56, 57.32247, 0.002699, NaN, NaN, NaN, 0.0433376, "- N/A -   "
1.59, 58.1481, 0.00274621, NaN, NaN, NaN, 0.04577916, "- N/A -   "
1.62, 59.2096, 0.00279619, NaN, NaN, NaN, 0.0445584, "- N/A -   "
1.65, 60.15321, 0.00285172, NaN, NaN, NaN, 0.04211683, "- N/A -   "
1.68, 61.45063, 0.00291281, NaN, NaN, NaN, 0.0384545, "- N/A -   "
1.71, 62.5122, 0.00297112, NaN, NaN, NaN, 0.0335714, "- N/A -   "
1.74, 63.5737, 0.00302388, NaN, NaN, NaN, 0.0323506, "- N/A -   "
1.77, 64.3993, 0.00307109, NaN, NaN, NaN, 0.0335714, "- N/A -   "
1.8, 65.4608, 0.003123846, NaN, NaN, NaN, 0.0323506, "- N/A -   "
1.83, 66.2865, 0.003168274, NaN, NaN, NaN, 0.0347922, "- N/A -   "
1.86, 67.1121, 0.00321826, NaN, NaN, NaN, 0.0347922, "- N/A -   "
1.89, 68.05569, 0.003268237, NaN, NaN, NaN, 0.03601294, "- N/A -   "
1.92, 69.11722, 0.00331544, NaN, NaN, NaN, 0.03601294, "- N/A -   "
1.95, 70.0608, 0.0033682, NaN, NaN, NaN, 0.0347922, "- N/A -   "
1.98, 71.12233, 0.00342096, NaN, NaN, NaN, 0.0335714, "- N/A -   "
2.01, 72.3018, 0.00347094, NaN, NaN, NaN, 0.0335714, "- N/A -   "
2.04, 73.2454, 0.00352092, NaN, NaN, NaN, 0.0335714, "- N/A -   "
2.07, 74.3069, 0.0035709, NaN, NaN, NaN, 0.0347922, "- N/A -   "
2.1, 75.13254, 0.003615331, NaN, NaN, NaN, 0.03601294, "- N/A -   "
2.13, 76.19407, 0.00366254, NaN, NaN, NaN, 0.0372337, "- N/A -   "
2.16, 76.90175, 0.00370696, NaN, NaN, NaN, 0.04089605, "- N/A -   "
2.19, 77.84533, 0.00375139, NaN, NaN, NaN, 0.04211683, "- N/A -   "
2.22, 79.0248, 0.00380415, NaN, NaN, NaN, 0.04211683, "- N/A -   "
2.25, 80.20428, 0.003859685, NaN, NaN, NaN, 0.0396753, "- N/A -   "
2.28, 81.38376, 0.00390967, NaN, NaN, NaN, 0.0384545, "- N/A -   "
2.31, 82.32734, 0.00395965, NaN, NaN, NaN, 0.0396753, "- N/A -   "
2.34, 83.50681, 0.00401241, NaN, NaN, NaN, 0.0372337, "- N/A -   "
2.37, 84.68629, 0.00406794, NaN, NaN, NaN, 0.0347922, "- N/A -   "
2.4, 85.62987, 0.004117923, NaN, NaN, NaN, 0.0347922, "- N/A -   "
2.43, 86.69139, 0.0041679, NaN, NaN, NaN, 0.03601294, "- N/A -   "
2.46, 87.75292, 0.00421789, NaN, NaN, NaN, 0.03601294, "- N/A -   "
2.49, 88.9324, 0.00426787, NaN, NaN, NaN, 0.0347922, "- N/A -   "
2.52, 89.99392, 0.00431785, NaN, NaN, NaN, 0.0347922, "- N/A -   "
2.55, 91.2913, 0.004376161, NaN, NaN, NaN, 0.0323506, "- N/A -   "
2.58, 92.35287, 0.004426142, NaN, NaN, NaN, 0.0323506, "- N/A -   "
2.61, 93.53234, 0.004476124, NaN, NaN, NaN, 0.03112983, "- N/A -   "
2.64, 94.47592, 0.00452611, NaN, NaN, NaN, 0.0323506, "- N/A -   "
2.67, 95.6554, 0.00457331, NaN, NaN, NaN, 0.0323506, "- N/A -   "
2.7, 96.83487, 0.004623292, NaN, NaN, NaN, 0.0323506, "- N/A -   "
2.73, 97.8964, 0.0046705, NaN, NaN, NaN, 0.0347922, "- N/A -   "
2.76, 98.83998, 0.004720478, NaN, NaN, NaN, 0.0335714, "- N/A -   "
2.79, 100.019, 0.00477046, NaN, NaN, NaN, 0.0335714, "- N/A -   "
2.82, 101.081, 0.00481766, NaN, NaN, NaN, 0.0347922, "- N/A -   "
2.85, 102.025, 0.004862093, NaN, NaN, NaN, 0.0372337, "- N/A -   "
2.88, 103.204, 0.004909297, NaN, NaN, NaN, 0.0384545, "- N/A -   "
2.91, 104.266, 0.00495373, NaN, NaN, NaN, 0.04089605, "- N/A -   "
2.94, 105.327, 0.005003707, NaN, NaN, NaN, 0.04089605, "- N/A -   "
2.97, 106.507, 0.00505369, NaN, NaN, NaN, 0.04211683, "- N/A -   "
3, 107.568, 0.005098116, NaN, NaN, NaN, 0.0433376, "- N/A -   "
3.03, 108.748, 0.0051481, NaN, NaN, NaN, 0.0445584, "- N/A -   "
3.06, 109.8091, 0.005198079, NaN, NaN, NaN, 0.0433376, "- N/A -   "
3.09, 111.107, 0.00525361, NaN, NaN, NaN, 0.04089605, "- N/A -   "
3.12, 112.758, 0.00531193, NaN, NaN, NaN, 0.0372337, "- N/A -   "
3.15, 114.055, 0.00537024, NaN, NaN, NaN, 0.0335714, "- N/A -   "
3.18, 115.117, 0.00542022, NaN, NaN, NaN, 0.0335714, "- N/A -   "
3.21, 116.296, 0.00546742, NaN, NaN, NaN, 0.0347922, "- N/A -   "
3.24, 117.476, 0.005517406, NaN, NaN, NaN, 0.03601294, "- N/A -   "
3.27, 118.537, 0.00556739, NaN, NaN, NaN, 0.0347922, "- N/A -   "
3.3, 119.953, 0.00562015, NaN, NaN, NaN, 0.0335714, "- N/A -   "
3.33, 121.132, 0.00567013, NaN, NaN, NaN, 0.0347922, "- N/A -   "
3.36, 122.429, 0.00572289, NaN, NaN, NaN, 0.0323506, "- N/A -   "
3.39, 123.845, 0.00577842, NaN, NaN, NaN, 0.0299091, "- N/A -   "
3.42, 125.024, 0.00583118, NaN, NaN, NaN, 0.0286883, "- N/A -   "
3.45, 126.204, 0.00588116, NaN, NaN, NaN, 0.0299091, "- N/A -   "
3.48, 127.147, 0.005925589, NaN, NaN, NaN, 0.0323506, "- N/A -   "
3.51, 128.209, 0.00596724, NaN, NaN, NaN, 0.0347922, "- N/A -   "
3.54, 129.27, 0.00601167, NaN, NaN, NaN, 0.0372337, "- N/A -   "
3.57, 130.214, 0.006056096, NaN, NaN, NaN, 0.0396753, "- N/A -   "
3.6, 131.276, 0.00610052, NaN, NaN, NaN, 0.04211683, "- N/A -   "
3.63, 132.337, 0.006144952, NaN, NaN, NaN, 0.04699994, "- N/A -   "
3.66, 133.517, 0.00618938, NaN, NaN, NaN, 0.0482207, "- N/A -   "
3.69, 134.696, 0.006244915, NaN, NaN, NaN, 0.04699994, "- N/A -   "
3.72, 136.111, 0.00630045, NaN, NaN, NaN, 0.0433376, "- N/A -   "
3.75, 137.6447, 0.006358762, NaN, NaN, NaN, 0.04089605, "- N/A -   "
3.78, 138.824, 0.00641152, NaN, NaN, NaN, 0.0384545, "- N/A -   "
3.81, 140.24, 0.006467055, NaN, NaN, NaN, 0.03601294, "- N/A -   "
3.84, 141.419, 0.006519813, NaN, NaN, NaN, 0.0347922, "- N/A -   "
3.87, 142.481, 0.006569795, NaN, NaN, NaN, 0.03601294, "- N/A -   "
3.9, 143.896, 0.00662533, NaN, NaN, NaN, 0.0335714, "- N/A -   "
3.93, 145.311, 0.006683642, NaN, NaN, NaN, 0.0286883, "- N/A -   "
3.96, 146.6087, 0.0067364, NaN, NaN, NaN, 0.0274675, "- N/A -   "
3.99, 147.906, 0.00678638, NaN, NaN, NaN, 0.0274675, "- N/A -   "
4.02, 148.968, 0.006836363, NaN, NaN, NaN, 0.0286883, "- N/A -   "
4.05, 150.029, 0.006883568, NaN, NaN, NaN, 0.0286883, "- N/A -   "
4.08, 151.209, 0.006928, NaN, NaN, NaN, 0.03112983, "- N/A -   "
4.11, 152.152, 0.006972424, NaN, NaN, NaN, 0.0335714, "- N/A -   "
4.14, 153.214, 0.007016852, NaN, NaN, NaN, 0.03601294, "- N/A -   "
4.17, 154.2753, 0.0070585, NaN, NaN, NaN, 0.0396753, "- N/A -   "
4.2, 155.219, 0.00710293, NaN, NaN, NaN, 0.04211683, "- N/A -   "
4.23, 156.398, 0.00714736, NaN, NaN, NaN, 0.0445584, "- N/A -   "
4.26, 157.578, 0.00719734, NaN, NaN, NaN, 0.0445584, "- N/A -   "
4.29, 158.7573, 0.00724732, NaN, NaN, NaN, 0.0445584, "- N/A -   "
4.32, 160.055, 0.0072973, NaN, NaN, NaN, 0.0445584, "- N/A -   "
4.35, 161.234, 0.00734451, NaN, NaN, NaN, 0.04577916, "- N/A -   "
4.38, 162.414, 0.007397267, NaN, NaN, NaN, 0.0445584, "- N/A -   "
4.41, 163.593, 0.00745003, NaN, NaN, NaN, 0.0433376, "- N/A -   "
4.44, 165.009, 0.00750556, NaN, NaN, NaN, 0.04211683, "- N/A -   "
4.47, 166.424, 0.0075611, NaN, NaN, NaN, 0.0384545, "- N/A -   "
4.5, 167.839, 0.007619407, NaN, NaN, NaN, 0.03601294, "- N/A -   "
4.53, 169.137, 0.007677719, NaN, NaN, NaN, 0.0323506, "- N/A -   "
4.56, 170.4341, 0.007730477, NaN, NaN, NaN, 0.03112983, "- N/A -   "
4.59, 171.496, 0.007777682, NaN, NaN, NaN, 0.03112983, "- N/A -   "
4.62, 172.793, 0.007827664, NaN, NaN, NaN, 0.03112983, "- N/A -   "
4.65, 173.973, 0.007877645, NaN, NaN, NaN, 0.0323506, "- N/A -   "
4.68, 175.034, 0.00792485, NaN, NaN, NaN, 0.0335714, "- N/A -   "
4.71, 176.214, 0.007969278, NaN, NaN, NaN, 0.0347922, "- N/A -   "
4.74, 177.393, 0.008016483, NaN, NaN, NaN, 0.03601294, "- N/A -   "
4.77, 178.455, 0.008063687, NaN, NaN, NaN, 0.0384545, "- N/A -   "
4.8, 179.634, 0.008110892, NaN, NaN, NaN, 0.0384545, "- N/A -   "
4.83, 180.813, 0.008160874, NaN, NaN, NaN, 0.0384545, "- N/A -   "
4.86, 181.993, 0.008213632, NaN, NaN, NaN, 0.0384545, "- N/A -   "
4.89, 183.172, 0.008258061, NaN, NaN, NaN, 0.0396753, "- N/A -   "
4.92, 184.234, 0.008302488, NaN, NaN, NaN, 0.04211683, "- N/A -   "
4.95, 185.295, 0.00835247, NaN, NaN, NaN, 0.0433376, "- N/A -   "
4.98, 186.475, 0.008399675, NaN, NaN, NaN, 0.0433376, "- N/A -   "
4.99, 186.947, 0.008416335, NaN, NaN, NaN, 0.0433376, "- N/A -   "
5, 187.301, 0.008433, NaN, NaN, NaN, 0.0433376, "- N/A -   "
5.01, 187.772, 0.008449656, NaN, NaN, NaN, 0.0433376, "- N/A -   "
5.02, 188.008, 0.008466316, NaN, NaN, NaN, 0.0433376, "- N/A -   "
5.03, 188.48, 0.008482977, NaN, NaN, NaN, 0.0433376, "- N/A -   "
5.04, 188.952, 0.008502414, NaN, NaN, NaN, 0.0433376, "- N/A -   "
5.05, 189.424, 0.008519075, NaN, NaN, NaN, 0.04211683, "- N/A -   "
5.06, 189.777, 0.00853851, NaN, NaN, NaN, 0.04089605, "- N/A -   "
5.07, 190.367, 0.008557949, NaN, NaN, NaN, 0.0396753, "- N/A -   "
5.08, 190.721, 0.008577387, NaN, NaN, NaN, 0.0384545, "- N/A -   "
5.09, 191.311, 0.008596824, NaN, NaN, NaN, 0.0372337, "- N/A -   "
5.1, 191.7826, 0.008619037, NaN, NaN, NaN, 0.0347922, "- N/A -   "
5.11, 192.254, 0.008635699, NaN, NaN, NaN, 0.0347922, "- N/A -   "
5.12, 192.608, 0.00865514, NaN, NaN, NaN, 0.0347922, "- N/A -   "
5.13, 193.08, 0.008671796, NaN, NaN, NaN, 0.0335714, "- N/A -   "
5.14, 193.5518, 0.008691234, NaN, NaN, NaN, 0.0335714, "- N/A -   "
5.15, 194.024, 0.008707894, NaN, NaN, NaN, 0.0323506, "- N/A -   "
5.16, 194.495, 0.008727332, NaN, NaN, NaN, 0.03112983, "- N/A -   "
5.17, 194.731, 0.008743991, NaN, NaN, NaN, 0.03112983, "- N/A -   "
5.18, 195.203, 0.008763429, NaN, NaN, NaN, 0.0299091, "- N/A -   "
5.19, 195.675, 0.008780089, NaN, NaN, NaN, 0.0299091, "- N/A -   "
5.2, 196.0287, 0.008799527, NaN, NaN, NaN, 0.0299091, "- N/A -   "
5.21, 196.383, 0.008816187, NaN, NaN, NaN, 0.0286883, "- N/A -   "
5.22, 196.854, 0.00883007, NaN, NaN, NaN, 0.0299091, "- N/A -   "
5.23, 197.09, 0.008846732, NaN, NaN, NaN, 0.03112983, "- N/A -   "
5.24, 197.562, 0.008860615, NaN, NaN, NaN, 0.03112983, "- N/A -   "
5.25, 197.916, 0.00887728, NaN, NaN, NaN, 0.0323506, "- N/A -   "
5.26, 198.152, 0.00889116, NaN, NaN, NaN, 0.0323506, "- N/A -   "
5.27, 198.624, 0.00890782, NaN, NaN, NaN, 0.0323506, "- N/A -   "
5.28, 198.977, 0.008921703, NaN, NaN, NaN, 0.0335714, "- N/A -   "
5.29, 199.213, 0.008938365, NaN, NaN, NaN, 0.0347922, "- N/A -   "
5.3, 199.685, 0.008952248, NaN, NaN, NaN, 0.0347922, "- N/A -   "
5.31, 200.039, 0.008968908, NaN, NaN, NaN, 0.0347922, "- N/A -   "
5.32, 200.393, 0.008985569, NaN, NaN, NaN, 0.0347922, "- N/A -   "
5.33, 200.629, 0.009002229, NaN, NaN, NaN, 0.03601294, "- N/A -   "
5.34, 201.1, 0.009016113, NaN, NaN, NaN, 0.03601294, "- N/A -   "
5.35, 201.572, 0.009035551, NaN, NaN, NaN, 0.03601294, "- N/A -   "
5.36, 201.926, 0.00905221, NaN, NaN, NaN, 0.0347922, "- N/A -   "
5.37, 202.398, 0.009068872, NaN, NaN, NaN, 0.0347922, "- N/A -   "
5.38, 202.7517, 0.009088309, NaN, NaN, NaN, 0.0335714, "- N/A -   "
5.39, 203.341, 0.00910497, NaN, NaN, NaN, 0.0335714, "- N/A -   "
5.4, 203.695, 0.009124407, NaN, NaN, NaN, 0.0335714, "- N/A -   "
5.41, 204.167, 0.009141067, NaN, NaN, NaN, 0.0323506, "- N/A -   "
5.42, 204.521, 0.00915773, NaN, NaN, NaN, 0.0323506, "- N/A -   "
5.43, 204.875, 0.009177165, NaN, NaN, NaN, 0.0323506, "- N/A -   "
5.44, 205.111, 0.009191048, NaN, NaN, NaN, 0.0323506, "- N/A -   "
5.45, 205.582, 0.009207709, NaN, NaN, NaN, 0.0323506, "- N/A -   "
5.46, 205.936, 0.009221593, NaN, NaN, NaN, 0.0335714, "- N/A -   "
5.47, 206.29, 0.009238253, NaN, NaN, NaN, 0.0335714, "- N/A -   "
5.48, 206.526, 0.009252137, NaN, NaN, NaN, 0.0347922, "- N/A -   "
5.49, 206.9978, 0.009268798, NaN, NaN, NaN, 0.0347922, "- N/A -   "
5.5, 207.2337, 0.009285458, NaN, NaN, NaN, 0.0347922, "- N/A -   "
5.51, 207.705, 0.009299342, NaN, NaN, NaN, 0.03601294, "- N/A -   "
5.52, 208.059, 0.009316003, NaN, NaN, NaN, 0.03601294, "- N/A -   "
5.53, 208.4132, 0.009329886, NaN, NaN, NaN, 0.0372337, "- N/A -   "
5.54, 208.649, 0.009346547, NaN, NaN, NaN, 0.0372337, "- N/A -   "
[...]
43.45, 1854.32, 0.072526, NaN, NaN, NaN, 0.0396753, "- N/A -   "
43.63, 1858.62, 0.07282587, NaN, NaN, NaN, 0.0384545, "- N/A -   "
43.69, -6.01532, 0.0731535, NaN, NaN, NaN, -0.11048, "- N/A -   "
43.7, 0.0, 0.07327571, NaN, NaN, NaN, -0.198376, "- N/A -   "
43.71, -0.7076848, 0.0733285, NaN, NaN, NaN, -0.253311, "- N/A -   "
43.76, 0.94358, 0.0732174, NaN, NaN, NaN, -0.307026, "- N/A -   "
43.81, -2.12305, 0.07300913, NaN, NaN, NaN, -0.181285, "- N/A -   "
43.86, -2.35895, 0.0729258, NaN, NaN, NaN, -0.0335714, "- N/A -   "
43.91, -1.76921, 0.07299803, NaN, NaN, NaN, 0.09461027, "- N/A -   "
43.96, -1.76921, 0.07319518, NaN, NaN, NaN, 0.127571, "- N/A -   "
44.01, -1.88716, 0.07338122, NaN, NaN, NaN, 0.101935, "- N/A -   "
44.06, -1.88716, 0.0735145, NaN, NaN, NaN, 0.07874016, "- N/A -   "
44.11, -1.76921, 0.07364224, NaN, NaN, NaN, 0.0592077, "- N/A -   "
44.16, -1.88716, 0.07375886, NaN, NaN, NaN, 0.04577916, "- N/A -   "
44.21, -1.88716, 0.0738505, NaN, NaN, NaN, 0.04089605, "- N/A -   "
44.26, -1.88716, 0.07394768, NaN, NaN, NaN, 0.0347922, "- N/A -   "
44.31, -1.88716, 0.07404209, NaN, NaN, NaN, 0.009155832, "- N/A -   "
44.36, -1.76921, 0.0740921, NaN, NaN, NaN, 0.0213636, "- N/A -   "
44.41, -1.76921, 0.0741559, NaN, NaN, NaN, 0.0299091, "- N/A -   "
44.46, -1.76921, 0.07422258, NaN, NaN, NaN, 0.0384545, "- N/A -   "
44.51, -1.76921, 0.0742948, NaN, NaN, NaN, 0.04211683, "- N/A -   "
44.56, -1.76921, 0.07436975, NaN, NaN, NaN, 0.04699994, "- N/A -   "
44.61, -1.76921, 0.07445027, NaN, NaN, NaN, 0.04699994, "- N/A -   "
44.66, -1.76921, 0.07454468, NaN, NaN, NaN, 0.04211683, "- N/A -   "
44.71, -1.88716, 0.0746391, NaN, NaN, NaN, 0.0372337, "- N/A -   "
44.76, -1.76921, 0.0747307, NaN, NaN, NaN, 0.0335714, "- N/A -   "
44.81, -1.76921, 0.07481958, NaN, NaN, NaN, 0.0323506, "- N/A -   "
44.86, -1.76921, 0.0749057, NaN, NaN, NaN, 0.0299091, "- N/A -   "
44.91, -1.76921, 0.07499174, NaN, NaN, NaN, 0.0299091, "- N/A -   "
44.96, -1.76921, 0.0750723, NaN, NaN, NaN, 0.0299091, "- N/A -   "
45.01, -1.76921, 0.07515557, NaN, NaN, NaN, 0.0299091, "- N/A -   "
45.06, -1.76921, 0.07523054, NaN, NaN, NaN, 0.0335714, "- N/A -   "
45.11, -1.76921, 0.0753055, NaN, NaN, NaN, 0.0372337, "- N/A -   "
45.16, -1.76921, 0.07537493, NaN, NaN, NaN, 0.0433376, "- N/A -   "
45.21, -1.76921, 0.07545546, NaN, NaN, NaN, 0.04577916, "- N/A -   "
45.26, -1.76921, 0.07554153, NaN, NaN, NaN, 0.0445584, "- N/A -   "
45.31, -1.76921, 0.07562484, NaN, NaN, NaN, 0.0445584, "- N/A -   "
45.36, -1.65126, 0.0757109, NaN, NaN, NaN, 0.04211683, "- N/A -   "
45.41, -1.65126, 0.07580255, NaN, NaN, NaN, 0.0384545, "- N/A -   "
45.46, -1.76921, 0.0759025, NaN, NaN, NaN, 0.0323506, "- N/A -   "
45.51, -1.76921, 0.07598582, NaN, NaN, NaN, 0.03112983, "- N/A -   "
45.56, -1.76921, 0.07606912, NaN, NaN, NaN, 0.0323506, "- N/A -   "
45.61, -1.65126, 0.07614687, NaN, NaN, NaN, 0.0335714, "- N/A -   "
45.66, -1.76921, 0.07622739, NaN, NaN, NaN, 0.0347922, "- N/A -   "
45.71, -1.65126, 0.07630792, NaN, NaN, NaN, 0.03601294, "- N/A -   "
45.76, -1.65126, 0.076394, NaN, NaN, NaN, 0.03601294, "- N/A -   "
45.81, -1.76921, 0.0764745, NaN, NaN, NaN, 0.03601294, "- N/A -   "
45.86, -1.76921, 0.07654949, NaN, NaN, NaN, 0.04089605, "- N/A -   "
45.91, -1.65126, 0.07662447, NaN, NaN, NaN, 0.0433376, "- N/A -   "
45.96, -1.76921, 0.07670222, NaN, NaN, NaN, 0.04577916, "- N/A -   "
46.01, -1.76921, 0.07679663, NaN, NaN, NaN, 0.04089605, "- N/A -   "
46.06, -1.76921, 0.0768938, NaN, NaN, NaN, 0.0347922, "- N/A -   "
46.11, -1.76921, 0.07698822, NaN, NaN, NaN, 0.0299091, "- N/A -   "
46.16, -1.65126, 0.07707708, NaN, NaN, NaN, 0.0286883, "- N/A -   "
46.21, -1.65126, 0.07715206, NaN, NaN, NaN, 0.0323506, "- N/A -   "
46.26, -1.76921, 0.07723258, NaN, NaN, NaN, 0.0323506, "- N/A -   "
46.31, -1.65126, 0.07731032, NaN, NaN, NaN, 0.0347922, "- N/A -   "
46.36, -1.65126, 0.07739641, NaN, NaN, NaN, 0.0335714, "- N/A -   "
46.41, -1.76921, 0.0774825, NaN, NaN, NaN, 0.0335714, "- N/A -   "
46.46, -1.65126, 0.07756023, NaN, NaN, NaN, 0.0347922, "- N/A -   "
46.51, -1.65126, 0.07763243, NaN, NaN, NaN, 0.04089605, "- N/A -   "
46.56, -1.65126, 0.07771018, NaN, NaN, NaN, 0.04211683, "- N/A -   "
46.61, -1.65126, 0.0777963, NaN, NaN, NaN, 0.04089605, "- N/A -   "
46.66, -1.65126, 0.0778823, NaN, NaN, NaN, 0.0396753, "- N/A -   "
46.71, -1.65126, 0.07796842, NaN, NaN, NaN, 0.0396753, "- N/A -   "
46.76, -1.53332, 0.0780573, NaN, NaN, NaN, 0.03601294, "- N/A -   "
46.81, -1.65126, 0.07814613, NaN, NaN, NaN, 0.0347922, "- N/A -   "
46.86, -1.65126, 0.07822665, NaN, NaN, NaN, 0.0347922, "- N/A -   "
46.91, -1.65126, 0.07831551, NaN, NaN, NaN, 0.0323506, "- N/A -   "
46.96, -1.65126, 0.07840437, NaN, NaN, NaN, 0.0299091, "- N/A -   "
47.01, -1.65126, 0.07848489, NaN, NaN, NaN, 0.0323506, "- N/A -   "
47.06, -1.65126, 0.07856542, NaN, NaN, NaN, 0.0323506, "- N/A -   "
47.11, -1.65126, 0.07864872, NaN, NaN, NaN, 0.0323506, "- N/A -   "
47.16, -1.65126, 0.07873202, NaN, NaN, NaN, 0.0335714, "- N/A -   "
47.21, -1.65126, 0.078807, NaN, NaN, NaN, 0.03601294, "- N/A -   "
47.26, -1.65126, 0.07888474, NaN, NaN, NaN, 0.0396753, "- N/A -   "
47.31, -1.65126, 0.07896528, NaN, NaN, NaN, 0.04089605, "- N/A -   "
47.36, -1.65126, 0.07903747, NaN, NaN, NaN, 0.0445584, "- N/A -   "
47.41, -1.65126, 0.07912354, NaN, NaN, NaN, 0.0433376, "- N/A -   "
47.46, -1.53332, 0.0792152, NaN, NaN, NaN, 0.0396753, "- N/A -   "
47.51, -1.76921, 0.07931237, NaN, NaN, NaN, 0.0335714, "- N/A -   "
47.56, -1.76921, 0.07939844, NaN, NaN, NaN, 0.0323506, "- N/A -   "
47.61, -1.65126, 0.07948452, NaN, NaN, NaN, 0.03112983, "- N/A -   "
47.66, -1.65126, 0.0795734, NaN, NaN, NaN, 0.0299091, "- N/A -   "
47.71, -1.65126, 0.07965668, NaN, NaN, NaN, 0.0286883, "- N/A -   "
47.76, -1.65126, 0.07973999, NaN, NaN, NaN, 0.0286883, "- N/A -   "
47.81, -1.65126, 0.07982051, NaN, NaN, NaN, 0.0299091, "- N/A -   "
47.86, -1.65126, 0.07989548, NaN, NaN, NaN, 0.0335714, "- N/A -   "
47.91, -1.65126, 0.0799649, NaN, NaN, NaN, 0.0396753, "- N/A -   "
47.96, -1.53332, 0.0800371, NaN, NaN, NaN, 0.04577916, "- N/A -   "
48.01, -1.65126, 0.08011762, NaN, NaN, NaN, 0.04577916, "- N/A -   "
48.06, -1.53332, 0.08020648, NaN, NaN, NaN, 0.0433376, "- N/A -   "
48.11, -1.65126, 0.08030089, NaN, NaN, NaN, 0.0384545, "- N/A -   "
48.16, -1.65126, 0.0803925, NaN, NaN, NaN, 0.0347922, "- N/A -   "
48.21, -1.65126, 0.08047582, NaN, NaN, NaN, 0.0347922, "- N/A -   "
48.26, -1.65126, 0.0805647, NaN, NaN, NaN, 0.0323506, "- N/A -   "
48.31, -1.53332, 0.0806508, NaN, NaN, NaN, 0.03112983, "- N/A -   "
48.36, -1.53332, 0.0807424, NaN, NaN, NaN, 0.0286883, "- N/A -   "
48.41, -1.65126, 0.0808257, NaN, NaN, NaN, 0.0274675, "- N/A -   "
48.46, -1.65126, 0.08090344, NaN, NaN, NaN, 0.0299091, "- N/A -   "
48.51, -1.65126, 0.0809812, NaN, NaN, NaN, 0.0335714, "- N/A -   "
48.56, -1.53332, 0.08105061, NaN, NaN, NaN, 0.0384545, "- N/A -   "
48.61, -1.65126, 0.08112837, NaN, NaN, NaN, 0.04211683, "- N/A -   "
48.66, -1.65126, 0.08120889, NaN, NaN, NaN, 0.04211683, "- N/A -   "
48.71, -1.53332, 0.08129219, NaN, NaN, NaN, 0.0433376, "- N/A -   "
48.76, -1.65126, 0.08137827, NaN, NaN, NaN, 0.04089605, "- N/A -   "
48.81, -1.53332, 0.0814699, NaN, NaN, NaN, 0.0384545, "- N/A -   "
48.86, -1.53332, 0.0815643, NaN, NaN, NaN, 0.0323506, "- N/A -   "
48.91, -1.53332, 0.08165317, NaN, NaN, NaN, 0.03112983, "- N/A -   "
48.96, -1.53332, 0.0817337, NaN, NaN, NaN, 0.0323506, "- N/A -   "
49.01, -1.53332, 0.08181699, NaN, NaN, NaN, 0.0323506, "- N/A -   "
49.06, -1.65126, 0.0819003, NaN, NaN, NaN, 0.0323506, "- N/A -   "
49.11, -1.65126, 0.081978, NaN, NaN, NaN, 0.0347922, "- N/A -   "
49.16, -1.53332, 0.0820558, NaN, NaN, NaN, 0.0372337, "- N/A -   "
49.21, -1.65126, 0.0821419, NaN, NaN, NaN, 0.03601294, "- N/A -   "
49.26, -1.65126, 0.0822168, NaN, NaN, NaN, 0.0396753, "- N/A -   "
49.31, -1.53332, 0.0822946, NaN, NaN, NaN, 0.04211683, "- N/A -   "
49.36, -1.65126, 0.0823723, NaN, NaN, NaN, 0.0445584, "- N/A -   "
49.41, -1.53332, 0.0824612, NaN, NaN, NaN, 0.0433376, "- N/A -   "
49.46, -1.65126, 0.08256116, NaN, NaN, NaN, 0.03601294, "- N/A -   "
49.51, -1.53332, 0.0826528, NaN, NaN, NaN, 0.0323506, "- N/A -   "
49.56, -1.53332, 0.08274165, NaN, NaN, NaN, 0.0286883, "- N/A -   "
49.61, -1.53332, 0.0828138, NaN, NaN, NaN, 0.0335714, "- N/A -   "
49.66, -1.53332, 0.0828916, NaN, NaN, NaN, 0.03601294, "- N/A -   "
49.71, -1.53332, 0.0829693, NaN, NaN, NaN, 0.0384545, "- N/A -   "
49.76, -1.65126, 0.08306375, NaN, NaN, NaN, 0.0335714, "- N/A -   "
49.768, -1.53332, 0.08307764, NaN, NaN, NaN, 0.0335714, "- N/A -   "