File: 2_Tensile_Data/Hamel_ForceTest_Bolt3_Test4.csv
Time, Load (lb), Position (in), AxialStrain (in), TransverseStrain (in), Auxiliary (), Control Out (V), Stress (psi)
0.0, 1.06153, 0.0, NaN, NaN, NaN, 0.09338949, "- N/A -   "
0.01, 1.41537, 2.49908e-05, NaN, NaN, NaN, 0.100714, "- N/A -   "
0.02, 1.88716, 5.5535e-05, NaN, NaN, NaN, 0.105597, "- N/A -   "
0.03, 2.35895, 8.33026e-05, NaN, NaN, NaN, 0.100714, "- N/A -   "
0.04, 2.712792, 0.00011107, NaN, NaN, NaN, 0.095831, "- N/A -   "
0.05, 3.06663, 0.000136061, NaN, NaN, NaN, 0.09216871, "- N/A -   "
0.06, 3.53842, 1.554981E-4, NaN, NaN, NaN, 0.0897272, "- N/A -   "
0.07, 3.774319, 0.000180489, NaN, NaN, NaN, 0.08606482, "- N/A -   "
0.08, 4.12816, 0.000202703, NaN, NaN, NaN, 0.084844, "- N/A -   "
0.09, 4.482, 0.000224917, NaN, NaN, NaN, 0.08240249, "- N/A -   "
0.1, 4.953794, 2.471309E-4, NaN, NaN, NaN, 0.0799609, "- N/A -   "
0.11, 5.18969, 0.000266568, NaN, NaN, NaN, 0.07751938, "- N/A -   "
0.12, 5.66148, 0.000288782, NaN, NaN, NaN, 0.0750778, "- N/A -   "
0.13, 5.897373, 3.109962E-4, NaN, NaN, NaN, 0.07263627, "- N/A -   "
0.14, 6.251216, 0.000335987, NaN, NaN, NaN, 0.0689739, "- N/A -   "
0.15, 6.723006, 0.000358201, NaN, NaN, NaN, 0.06653238, "- N/A -   "
0.16, 7.07685, 3.859685E-4, NaN, NaN, NaN, 0.06287005, "- N/A -   "
0.17, 7.430691, 4.081825E-4, NaN, NaN, NaN, 0.0604285, "- N/A -   "
0.18, 7.90248, 0.000430397, NaN, NaN, NaN, 0.05676616, "- N/A -   "
0.19, 8.138375, 0.000449834, NaN, NaN, NaN, 0.0555454, "- N/A -   "
0.2, 8.610166, 0.000474825, NaN, NaN, NaN, 0.05188305, "- N/A -   "
0.21, 8.964007, 4.970386E-4, NaN, NaN, NaN, 0.0494415, "- N/A -   "
0.22, 9.435798, 0.000522029, NaN, NaN, NaN, 0.04699994, "- N/A -   "
0.23, 9.671693, 5.414666E-4, NaN, NaN, NaN, 0.0445584, "- N/A -   "
0.24, 10.0255, 5.636806E-4, NaN, NaN, NaN, 0.04211683, "- N/A -   "
0.25, 10.3794, 5.858946E-4, NaN, NaN, NaN, 0.04089605, "- N/A -   "
0.26, 10.73322, 6.053319E-4, NaN, NaN, NaN, 0.0396753, "- N/A -   "
0.27, 10.9691, 0.000624769, NaN, NaN, NaN, 0.0384545, "- N/A -   "
0.28, 11.323, 6.414297E-4, NaN, NaN, NaN, 0.0372337, "- N/A -   "
0.29, 11.6768, 0.00065809, NaN, NaN, NaN, 0.0372337, "- N/A -   "
0.3, 11.9127, 6.747507E-4, NaN, NaN, NaN, 0.0372337, "- N/A -   "
0.31, 12.14859, 6.914112E-4, NaN, NaN, NaN, 0.0372337, "- N/A -   "
0.32, 12.3845, 7.108485E-4, NaN, NaN, NaN, 0.0372337, "- N/A -   "
0.33, 12.7383, 7.27509E-4, NaN, NaN, NaN, 0.03601294, "- N/A -   "
0.34, 13.09217, 0.000744169, NaN, NaN, NaN, 0.03601294, "- N/A -   "
0.35, 13.3281, 0.000763607, NaN, NaN, NaN, 0.0347922, "- N/A -   "
0.36, 13.6819, 0.000780267, NaN, NaN, NaN, 0.0347922, "- N/A -   "
0.37, 13.9178, 7.997045E-4, NaN, NaN, NaN, 0.0347922, "- N/A -   "
0.38, 14.1537, 8.191418E-4, NaN, NaN, NaN, 0.0335714, "- N/A -   "
0.39, 14.5075, 8.358023E-4, NaN, NaN, NaN, 0.0323506, "- N/A -   "
0.4, 14.8614, 8.524628E-4, NaN, NaN, NaN, 0.0323506, "- N/A -   "
0.41, 15.0973, 0.0008719, NaN, NaN, NaN, 0.0323506, "- N/A -   "
0.47, 16.74854, 9.774166E-4, NaN, NaN, NaN, 0.0299091, "- N/A -   "
0.53, 18.2819, 0.00106627, NaN, NaN, NaN, 0.0335714, "- N/A -   "
0.59, 19.6972, 0.001152352, NaN, NaN, NaN, 0.0396753, "- N/A -   "
0.65, 20.99465, 0.00124398, NaN, NaN, NaN, 0.0433376, "- N/A -   "
0.71, 22.6459, 0.00134117, NaN, NaN, NaN, 0.0445584, "- N/A -   "
0.77, 24.1792, 0.00143836, NaN, NaN, NaN, 0.04577916, "- N/A -   "
0.83, 25.9484, 0.001543874, NaN, NaN, NaN, 0.0433376, "- N/A -   "
0.89, 27.8356, 0.001654944, NaN, NaN, NaN, 0.0384545, "- N/A -   "
0.95, 29.84071, 0.00177434, NaN, NaN, NaN, 0.03112983, "- N/A -   "
1.01, 31.492, 0.00187708, NaN, NaN, NaN, 0.0299091, "- N/A -   "
1.07, 33.02529, 0.00197149, NaN, NaN, NaN, 0.0323506, "- N/A -   "
1.13, 34.7945, 0.00206868, NaN, NaN, NaN, 0.0323506, "- N/A -   "
1.19, 36.44577, 0.00216309, NaN, NaN, NaN, 0.0347922, "- N/A -   "
1.25, 38.097, 0.00225472, NaN, NaN, NaN, 0.0384545, "- N/A -   "
1.31, 39.8662, 0.00235469, NaN, NaN, NaN, 0.0384545, "- N/A -   "
1.37, 41.16367, 0.00244354, NaN, NaN, NaN, 0.0433376, "- N/A -   "
1.43, 42.93288, 0.002537951, NaN, NaN, NaN, 0.04577916, "- N/A -   "
1.49, 44.93799, 0.00264624, NaN, NaN, NaN, 0.04211683, "- N/A -   "
1.55, 47.179, 0.00276564, NaN, NaN, NaN, 0.0335714, "- N/A -   "
1.61, 49.1841, 0.00287394, NaN, NaN, NaN, 0.0299091, "- N/A -   "
1.67, 50.9533, 0.0029739, NaN, NaN, NaN, 0.0299091, "- N/A -   "
1.73, 52.48662, 0.00306276, NaN, NaN, NaN, 0.0347922, "- N/A -   "
1.79, 54.2558, 0.00315994, NaN, NaN, NaN, 0.03601294, "- N/A -   "
1.85, 56.37889, 0.00327101, NaN, NaN, NaN, 0.0323506, "- N/A -   "
1.91, 58.1481, 0.0033682, NaN, NaN, NaN, 0.0323506, "- N/A -   "
1.97, 59.5635, 0.00345428, NaN, NaN, NaN, 0.0384545, "- N/A -   "
2.03, 61.2147, 0.00354869, NaN, NaN, NaN, 0.04211683, "- N/A -   "
2.09, 63.2198, 0.00365143, NaN, NaN, NaN, 0.0396753, "- N/A -   "
2.15, 64.98906, 0.00375139, NaN, NaN, NaN, 0.0396753, "- N/A -   "
2.21, 66.99416, 0.00385413, NaN, NaN, NaN, 0.0384545, "- N/A -   "
2.27, 68.7634, 0.00395687, NaN, NaN, NaN, 0.0372337, "- N/A -   "
2.33, 70.6505, 0.00405683, NaN, NaN, NaN, 0.0372337, "- N/A -   "
2.39, 72.5377, 0.004165128, NaN, NaN, NaN, 0.0335714, "- N/A -   "
2.45, 74.3069, 0.004265091, NaN, NaN, NaN, 0.0335714, "- N/A -   "
2.51, 76.19407, 0.00436783, NaN, NaN, NaN, 0.0323506, "- N/A -   "
2.57, 77.84533, 0.00446779, NaN, NaN, NaN, 0.0323506, "- N/A -   "
2.63, 79.73249, 0.004567757, NaN, NaN, NaN, 0.0323506, "- N/A -   "
2.69, 81.26581, 0.00466217, NaN, NaN, NaN, 0.0347922, "- N/A -   "
2.75, 82.79912, 0.004753799, NaN, NaN, NaN, 0.0384545, "- N/A -   "
2.81, 84.21449, 0.004845432, NaN, NaN, NaN, 0.0433376, "- N/A -   "
2.87, 85.9837, 0.004945395, NaN, NaN, NaN, 0.0433376, "- N/A -   "
2.93, 87.75292, 0.00505091, NaN, NaN, NaN, 0.04089605, "- N/A -   "
2.99, 89.6401, 0.005167535, NaN, NaN, NaN, 0.0323506, "- N/A -   "
3.05, 91.1734, 0.00527028, NaN, NaN, NaN, 0.03112983, "- N/A -   "
3.11, 92.70671, 0.00536746, NaN, NaN, NaN, 0.0335714, "- N/A -   "
3.17, 94.24, 0.00546742, NaN, NaN, NaN, 0.0323506, "- N/A -   "
3.23, 96.00924, 0.00557849, NaN, NaN, NaN, 0.0274675, "- N/A -   "
3.29, 97.4246, 0.0056729, NaN, NaN, NaN, 0.0299091, "- N/A -   "
3.35, 98.72203, 0.005756207, NaN, NaN, NaN, 0.0372337, "- N/A -   "
3.41, 100.019, 0.00584229, NaN, NaN, NaN, 0.0445584, "- N/A -   "
3.47, 101.435, 0.0059367, NaN, NaN, NaN, 0.04699994, "- N/A -   "
3.53, 103.086, 0.006042212, NaN, NaN, NaN, 0.04577916, "- N/A -   "
3.59, 104.973, 0.006156059, NaN, NaN, NaN, 0.0384545, "- N/A -   "
3.65, 106.625, 0.006261575, NaN, NaN, NaN, 0.0372337, "- N/A -   "
3.71, 108.158, 0.006358762, NaN, NaN, NaN, 0.0372337, "- N/A -   "
3.77, 110.045, 0.00647261, NaN, NaN, NaN, 0.03112983, "- N/A -   "
3.83, 111.696, 0.00657535, NaN, NaN, NaN, 0.0299091, "- N/A -   "
3.89, 113.348, 0.006678088, NaN, NaN, NaN, 0.0286883, "- N/A -   "
3.95, 114.527, 0.006766944, NaN, NaN, NaN, 0.0335714, "- N/A -   "
4.01, 116.06, 0.0068558, NaN, NaN, NaN, 0.0384545, "- N/A -   "
4.07, 117.358, 0.00694188, NaN, NaN, NaN, 0.0445584, "- N/A -   "
4.13, 119.127, 0.007047396, NaN, NaN, NaN, 0.0433376, "- N/A -   "
4.19, 120.542, 0.00714458, NaN, NaN, NaN, 0.0433376, "- N/A -   "
4.25, 122.312, 0.00724455, NaN, NaN, NaN, 0.0433376, "- N/A -   "
4.31, 124.199, 0.00735839, NaN, NaN, NaN, 0.0372337, "- N/A -   "
4.37, 126.204, 0.007477793, NaN, NaN, NaN, 0.0286883, "- N/A -   "
4.43, 127.855, 0.00758331, NaN, NaN, NaN, 0.0274675, "- N/A -   "
4.49, 129.152, 0.007674942, NaN, NaN, NaN, 0.03112983, "- N/A -   "
4.55, 130.568, 0.007755468, NaN, NaN, NaN, 0.0384545, "- N/A -   "
4.61, 132.101, 0.007858207, NaN, NaN, NaN, 0.0372337, "- N/A -   "
4.67, 133.752, 0.007963724, NaN, NaN, NaN, 0.03601294, "- N/A -   "
4.73, 135.4037, 0.008055357, NaN, NaN, NaN, 0.0384545, "- N/A -   "
4.79, 136.819, 0.00814699, NaN, NaN, NaN, 0.0433376, "- N/A -   "
4.85, 138.352, 0.008241399, NaN, NaN, NaN, 0.0445584, "- N/A -   "
4.91, 140.24, 0.00835247, NaN, NaN, NaN, 0.04089605, "- N/A -   "
4.97, 142.1267, 0.008466316, NaN, NaN, NaN, 0.0335714, "- N/A -   "
5.03, 143.896, 0.00857461, NaN, NaN, NaN, 0.03112983, "- N/A -   "
5.09, 145.311, 0.00866624, NaN, NaN, NaN, 0.0347922, "- N/A -   "
5.15, 146.963, 0.00876065, NaN, NaN, NaN, 0.03601294, "- N/A -   "
5.21, 148.378, 0.008863391, NaN, NaN, NaN, 0.03601294, "- N/A -   "
5.27, 150.383, 0.008968908, NaN, NaN, NaN, 0.0323506, "- N/A -   "
5.33, 151.916, 0.009063318, NaN, NaN, NaN, 0.0347922, "- N/A -   "
5.39, 153.332, 0.009154951, NaN, NaN, NaN, 0.0384545, "- N/A -   "
5.45, 154.865, 0.009246584, NaN, NaN, NaN, 0.04211683, "- N/A -   "
5.51, 156.752, 0.009349324, NaN, NaN, NaN, 0.04089605, "- N/A -   "
5.57, 158.2855, 0.009452064, NaN, NaN, NaN, 0.0396753, "- N/A -   "
5.63, 160.2906, 0.009560357, NaN, NaN, NaN, 0.03601294, "- N/A -   "
5.69, 161.824, 0.009657542, NaN, NaN, NaN, 0.0372337, "- N/A -   "
5.75, 163.593, 0.009763059, NaN, NaN, NaN, 0.0347922, "- N/A -   "
5.81, 165.4803, 0.009871352, NaN, NaN, NaN, 0.03112983, "- N/A -   "
5.87, 167.132, 0.009971316, NaN, NaN, NaN, 0.03112983, "- N/A -   "
5.93, 168.783, 0.0100657, NaN, NaN, NaN, 0.0335714, "- N/A -   "
5.99, 170.316, 0.0101657, NaN, NaN, NaN, 0.0347922, "- N/A -   "
6.05, 172.321, 0.0102712, NaN, NaN, NaN, 0.03112983, "- N/A -   "
6.11, 173.501, 0.0103573, NaN, NaN, NaN, 0.0384545, "- N/A -   "
6.17, 175.034, 0.0104489, NaN, NaN, NaN, 0.04089605, "- N/A -   "
6.23, 176.6853, 0.0105433, NaN, NaN, NaN, 0.0433376, "- N/A -   "
6.29, 178.455, 0.0106461, NaN, NaN, NaN, 0.04211683, "- N/A -   "
6.35, 180.46, 0.0107571, NaN, NaN, NaN, 0.0372337, "- N/A -   "
6.41, 182.3468, 0.010871, NaN, NaN, NaN, 0.0323506, "- N/A -   "
6.47, 183.998, 0.0109654, NaN, NaN, NaN, 0.0335714, "- N/A -   "
6.53, 185.649, 0.0110598, NaN, NaN, NaN, 0.03601294, "- N/A -   "
6.59, 187.536, 0.0111709, NaN, NaN, NaN, 0.03112983, "- N/A -   "
6.65, 189.3057, 0.0112792, NaN, NaN, NaN, 0.0286883, "- N/A -   "
6.71, 190.839, 0.0113708, NaN, NaN, NaN, 0.0323506, "- N/A -   "
6.77, 192.254, 0.0114541, NaN, NaN, NaN, 0.0384545, "- N/A -   "
6.83, 193.906, 0.011543, NaN, NaN, NaN, 0.0433376, "- N/A -   "
6.89, 195.5569, 0.0116401, NaN, NaN, NaN, 0.04577916, "- N/A -   "
6.95, 197.326, 0.0117401, NaN, NaN, NaN, 0.0445584, "- N/A -   "
7.01, 199.449, 0.011854, NaN, NaN, NaN, 0.0384545, "- N/A -   "
7.07, 201.336, 0.0119622, NaN, NaN, NaN, 0.0347922, "- N/A -   "
7.13, 203.106, 0.0120678, NaN, NaN, NaN, 0.0323506, "- N/A -   "
7.19, 204.875, 0.0121788, NaN, NaN, NaN, 0.0286883, "- N/A -   "
7.25, 206.762, 0.0122816, NaN, NaN, NaN, 0.0262467, "- N/A -   "
7.31, 208.4132, 0.0123732, NaN, NaN, NaN, 0.0299091, "- N/A -   "
7.37, 209.829, 0.0124621, NaN, NaN, NaN, 0.0347922, "- N/A -   "
7.43, 211.362, 0.0125537, NaN, NaN, NaN, 0.0384545, "- N/A -   "
7.49, 213.013, 0.0126453, NaN, NaN, NaN, 0.04211683, "- N/A -   "
7.55, 214.782, 0.0127425, NaN, NaN, NaN, 0.0433376, "- N/A -   "
7.61, 216.552, 0.0128425, NaN, NaN, NaN, 0.0433376, "- N/A -   "
7.67, 218.557, 0.0129508, NaN, NaN, NaN, 0.0396753, "- N/A -   "
7.73, 220.68, 0.0130674, NaN, NaN, NaN, 0.0323506, "- N/A -   "
7.79, 222.803, 0.0131812, NaN, NaN, NaN, 0.0274675, "- N/A -   "
7.85, 224.454, 0.01327565, NaN, NaN, NaN, 0.0286883, "- N/A -   "
7.91, 226.223, 0.0133701, NaN, NaN, NaN, 0.03112983, "- N/A -   "
7.97, 227.875, 0.0134617, NaN, NaN, NaN, 0.0347922, "- N/A -   "
7.99, 228.464, 0.0134922, NaN, NaN, NaN, 0.03601294, "- N/A -   "
8, 228.7, 0.0135089, NaN, NaN, NaN, 0.03601294, "- N/A -   "
8.01, 229.054, 0.0135256, NaN, NaN, NaN, 0.0372337, "- N/A -   "
8.02, 229.29, 0.0135367, NaN, NaN, NaN, 0.0384545, "- N/A -   "
8.03, 229.526, 0.0135561, NaN, NaN, NaN, 0.0384545, "- N/A -   "
8.04, 229.762, 0.0135728, NaN, NaN, NaN, 0.0372337, "- N/A -   "
8.05, 230.116, 0.0135894, NaN, NaN, NaN, 0.0372337, "- N/A -   "
8.06, 230.469, 0.0136061, NaN, NaN, NaN, 0.0384545, "- N/A -   "
8.07, 230.705, 0.0136227, NaN, NaN, NaN, 0.0384545, "- N/A -   "
8.08, 231.0591, 0.0136394, NaN, NaN, NaN, 0.0384545, "- N/A -   "
8.09, 231.413, 0.0136561, NaN, NaN, NaN, 0.0384545, "- N/A -   "
8.1, 231.649, 0.0136727, NaN, NaN, NaN, 0.0384545, "- N/A -   "
8.11, 232.003, 0.0136894, NaN, NaN, NaN, 0.0384545, "- N/A -   "
8.12, 232.239, 0.013706, NaN, NaN, NaN, 0.0384545, "- N/A -   "
8.13, 232.592, 0.0137199, NaN, NaN, NaN, 0.0396753, "- N/A -   "
8.14, 232.828, 0.0137366, NaN, NaN, NaN, 0.04089605, "- N/A -   "
8.15, 233.0642, 0.0137505, NaN, NaN, NaN, 0.04211683, "- N/A -   "
8.16, 233.3001, 0.0137644, NaN, NaN, NaN, 0.04211683, "- N/A -   "
8.17, 233.654, 0.013781, NaN, NaN, NaN, 0.0433376, "- N/A -   "
8.18, 233.89, 0.0137949, NaN, NaN, NaN, 0.0433376, "- N/A -   "
8.19, 234.126, 0.0138116, NaN, NaN, NaN, 0.0433376, "- N/A -   "
8.2, 234.48, 0.0138282, NaN, NaN, NaN, 0.0445584, "- N/A -   "
8.21, 234.833, 0.0138421, NaN, NaN, NaN, 0.0445584, "- N/A -   "
8.22, 235.0693, 0.0138588, NaN, NaN, NaN, 0.0445584, "- N/A -   "
8.23, 235.3052, 0.01387543, NaN, NaN, NaN, 0.04577916, "- N/A -   "
8.24, 235.5411, 0.0138893, NaN, NaN, NaN, 0.04577916, "- N/A -   "
8.25, 235.895, 0.013906, NaN, NaN, NaN, 0.04577916, "- N/A -   "
8.26, 236.249, 0.0139254, NaN, NaN, NaN, 0.04577916, "- N/A -   "
8.27, 236.603, 0.0139421, NaN, NaN, NaN, 0.04577916, "- N/A -   "
8.28, 236.956, 0.0139587, NaN, NaN, NaN, 0.0445584, "- N/A -   "
8.29, 237.192, 0.0139754, NaN, NaN, NaN, 0.0445584, "- N/A -   "
8.3, 237.5462, 0.0139948, NaN, NaN, NaN, 0.0433376, "- N/A -   "
8.31, 237.9, 0.014017, NaN, NaN, NaN, 0.04211683, "- N/A -   "
8.32, 238.254, 0.0140365, NaN, NaN, NaN, 0.04089605, "- N/A -   "
8.33, 238.726, 0.0140559, NaN, NaN, NaN, 0.0396753, "- N/A -   "
8.34, 238.962, 0.0140754, NaN, NaN, NaN, 0.0384545, "- N/A -   "
8.35, 239.433, 0.014092, NaN, NaN, NaN, 0.0372337, "- N/A -   "
8.36, 239.669, 0.0141115, NaN, NaN, NaN, 0.0372337, "- N/A -   "
8.37, 240.0231, 0.0141281, NaN, NaN, NaN, 0.03601294, "- N/A -   "
8.38, 240.377, 0.0141476, NaN, NaN, NaN, 0.0347922, "- N/A -   "
8.39, 240.731, 0.0141642, NaN, NaN, NaN, 0.0347922, "- N/A -   "
8.4, 241.085, 0.0141836, NaN, NaN, NaN, 0.0347922, "- N/A -   "
8.41, 241.321, 0.0142003, NaN, NaN, NaN, 0.0335714, "- N/A -   "
8.42, 241.792, 0.0142197, NaN, NaN, NaN, 0.0335714, "- N/A -   "
8.43, 242.146, 0.0142392, NaN, NaN, NaN, 0.0323506, "- N/A -   "
8.44, 242.5, 0.0142586, NaN, NaN, NaN, 0.03112983, "- N/A -   "
8.45, 242.971, 0.0142753, NaN, NaN, NaN, 0.0299091, "- N/A -   "
8.46, 243.207, 0.0142947, NaN, NaN, NaN, 0.0299091, "- N/A -   "
8.47, 243.443, 0.0143086, NaN, NaN, NaN, 0.0299091, "- N/A -   "
8.48, 243.678, 0.0143253, NaN, NaN, NaN, 0.0299091, "- N/A -   "
8.49, 243.914, 0.0143419, NaN, NaN, NaN, 0.03112983, "- N/A -   "
8.5, 244.2674, 0.0143558, NaN, NaN, NaN, 0.03112983, "- N/A -   "
8.51, 244.621, 0.0143697, NaN, NaN, NaN, 0.0323506, "- N/A -   "
8.52, 244.7387, 0.0143864, NaN, NaN, NaN, 0.0323506, "- N/A -   "
8.53, 245.092, 0.014403, NaN, NaN, NaN, 0.0335714, "- N/A -   "
8.54, 245.328, 0.0144169, NaN, NaN, NaN, 0.0335714, "- N/A -   "
8.55, 245.563, 0.0144336, NaN, NaN, NaN, 0.0335714, "- N/A -   "
8.56, 245.917, 0.0144474, NaN, NaN, NaN, 0.0347922, "- N/A -   "
8.57, 246.27, 0.0144641, NaN, NaN, NaN, 0.0347922, "- N/A -   "
8.58, 246.624, 0.01448076, NaN, NaN, NaN, 0.0347922, "- N/A -   "
8.59, 246.86, 0.0144974, NaN, NaN, NaN, 0.0347922, "- N/A -   "
8.6, 247.095, 0.0145141, NaN, NaN, NaN, 0.0347922, "- N/A -   "
8.61, 247.567, 0.0145307, NaN, NaN, NaN, 0.0347922, "- N/A -   "
8.62, 247.802, 0.01455018, NaN, NaN, NaN, 0.0347922, "- N/A -   "
8.63, 248.156, 0.0145668, NaN, NaN, NaN, 0.0347922, "- N/A -   "
8.64, 248.3913, 0.0145835, NaN, NaN, NaN, 0.0335714, "- N/A -   "
8.65, 248.745, 0.0146029, NaN, NaN, NaN, 0.0335714, "- N/A -   "
8.66, 249.098, 0.0146196, NaN, NaN, NaN, 0.0335714, "- N/A -   "
8.67, 249.452, 0.0146363, NaN, NaN, NaN, 0.0335714, "- N/A -   "
8.68, 249.805, 0.0146501, NaN, NaN, NaN, 0.0335714, "- N/A -   "
8.69, 250.159, 0.0146696, NaN, NaN, NaN, 0.0323506, "- N/A -   "
8.7, 250.512, 0.0146835, NaN, NaN, NaN, 0.0335714, "- N/A -   "
8.71, 250.63, 0.0146973, NaN, NaN, NaN, 0.0347922, "- N/A -   "
8.72, 250.866, 0.014714, NaN, NaN, NaN, 0.03601294, "- N/A -   "
8.73, 251.219, 0.0147279, NaN, NaN, NaN, 0.03601294, "- N/A -   "
8.74, 251.5726, 0.0147446, NaN, NaN, NaN, 0.03601294, "- N/A -   "
8.75, 251.808, 0.0147612, NaN, NaN, NaN, 0.0372337, "- N/A -   "
8.76, 252.162, 0.0147751, NaN, NaN, NaN, 0.0372337, "- N/A -   "
8.77, 252.397, 0.0147918, NaN, NaN, NaN, 0.0372337, "- N/A -   "
8.78, 252.633, 0.0148056, NaN, NaN, NaN, 0.0384545, "- N/A -   "
8.79, 252.987, 0.0148223, NaN, NaN, NaN, 0.0384545, "- N/A -   "
8.8, 253.34, 0.014839, NaN, NaN, NaN, 0.0384545, "- N/A -   "
8.81, 253.458, 0.0148528, NaN, NaN, NaN, 0.0396753, "- N/A -   "
8.82, 253.811, 0.0148667, NaN, NaN, NaN, 0.04089605, "- N/A -   "
8.83, 254.047, 0.01488339, NaN, NaN, NaN, 0.04211683, "- N/A -   "
8.84, 254.283, 0.0148973, NaN, NaN, NaN, 0.04211683, "- N/A -   "
8.85, 254.6361, 0.0149139, NaN, NaN, NaN, 0.0433376, "- N/A -   "
8.86, 254.872, 0.0149306, NaN, NaN, NaN, 0.0433376, "- N/A -   "
8.87, 255.225, 0.0149445, NaN, NaN, NaN, 0.0433376, "- N/A -   "
8.88, 255.579, 0.0149639, NaN, NaN, NaN, 0.04211683, "- N/A -   "
8.89, 255.932, 0.0149806, NaN, NaN, NaN, 0.04211683, "- N/A -   "
8.9, 256.286, 0.015, NaN, NaN, NaN, 0.04211683, "- N/A -   "
[...]
19.17, 630.7163, 0.03211869, NaN, NaN, NaN, 0.0396753, "- N/A -   "
19.23, 633.2002, 0.0322242, NaN, NaN, NaN, 0.0372337, "- N/A -   "
19.29, 635.684, 0.0323269, NaN, NaN, NaN, 0.03601294, "- N/A -   "
19.35, 638.168, 0.03242691, NaN, NaN, NaN, 0.03601294, "- N/A -   "
19.41, 640.5336, 0.03252965, NaN, NaN, NaN, 0.0347922, "- N/A -   "
19.47, 643.1358, 0.0326352, NaN, NaN, NaN, 0.0323506, "- N/A -   "
19.53, 645.501, 0.0327351, NaN, NaN, NaN, 0.0323506, "- N/A -   "
19.59, 647.985, 0.0328406, NaN, NaN, NaN, 0.03112983, "- N/A -   "
19.65, 650.2326, 0.0329323, NaN, NaN, NaN, 0.0335714, "- N/A -   "
19.71, 652.717, 0.033035, NaN, NaN, NaN, 0.0323506, "- N/A -   "
19.77, 654.7273, 0.03312665, NaN, NaN, NaN, 0.03601294, "- N/A -   "
19.83, 656.9747, 0.0332183, NaN, NaN, NaN, 0.04089605, "- N/A -   "
19.89, 658.9855, 0.03330436, NaN, NaN, NaN, 0.04577916, "- N/A -   "
19.95, 661.588, 0.0334071, NaN, NaN, NaN, 0.0445584, "- N/A -   "
20.01, 664.3081, 0.03352095, NaN, NaN, NaN, 0.0384545, "- N/A -   "
20.07, 667.029, 0.0336292, NaN, NaN, NaN, 0.0347922, "- N/A -   "
20.13, 669.394, 0.0337292, NaN, NaN, NaN, 0.0347922, "- N/A -   "
20.19, 671.642, 0.0338292, NaN, NaN, NaN, 0.0347922, "- N/A -   "
20.25, 674.5985, 0.033943, NaN, NaN, NaN, 0.0299091, "- N/A -   "
20.31, 676.9642, 0.034043, NaN, NaN, NaN, 0.0299091, "- N/A -   "
20.37, 678.975, 0.0341318, NaN, NaN, NaN, 0.0335714, "- N/A -   "
20.43, 680.986, 0.0342151, NaN, NaN, NaN, 0.04089605, "- N/A -   "
20.49, 683.115, 0.0343068, NaN, NaN, NaN, 0.0445584, "- N/A -   "
20.55, 685.362, 0.03440118, NaN, NaN, NaN, 0.04699994, "- N/A -   "
20.61, 687.964, 0.0345095, NaN, NaN, NaN, 0.0433376, "- N/A -   "
20.67, 691.04, 0.0346261, NaN, NaN, NaN, 0.03601294, "- N/A -   "
20.73, 693.523, 0.03473161, NaN, NaN, NaN, 0.0335714, "- N/A -   "
20.79, 696.1256, 0.03483713, NaN, NaN, NaN, 0.0323506, "- N/A -   "
20.85, 698.7278, 0.0349454, NaN, NaN, NaN, 0.0286883, "- N/A -   "
20.91, 701.2117, 0.0350454, NaN, NaN, NaN, 0.0274675, "- N/A -   "
20.97, 703.577, 0.03514535, NaN, NaN, NaN, 0.0286883, "- N/A -   "
21.03, 705.588, 0.03522865, NaN, NaN, NaN, 0.0347922, "- N/A -   "
21.09, 707.5988, 0.0353175, NaN, NaN, NaN, 0.0396753, "- N/A -   "
21.15, 709.8462, 0.0354119, NaN, NaN, NaN, 0.04211683, "- N/A -   "
21.21, 712.3301, 0.0355091, NaN, NaN, NaN, 0.0433376, "- N/A -   "
21.27, 714.6957, 0.0356063, NaN, NaN, NaN, 0.0445584, "- N/A -   "
21.33, 717.416, 0.03571736, NaN, NaN, NaN, 0.04089605, "- N/A -   "
21.39, 720.2549, 0.035834, NaN, NaN, NaN, 0.0335714, "- N/A -   "
21.45, 722.857, 0.03594228, NaN, NaN, NaN, 0.0299091, "- N/A -   "
21.51, 725.341, 0.0360367, NaN, NaN, NaN, 0.03112983, "- N/A -   "
21.57, 727.47, 0.03613665, NaN, NaN, NaN, 0.0323506, "- N/A -   "
21.63, 729.9539, 0.03622828, NaN, NaN, NaN, 0.03601294, "- N/A -   "
21.69, 732.3196, 0.0363282, NaN, NaN, NaN, 0.0372337, "- N/A -   "
21.75, 734.803, 0.03642821, NaN, NaN, NaN, 0.03601294, "- N/A -   "
21.81, 736.8143, 0.0365143, NaN, NaN, NaN, 0.04211683, "- N/A -   "
21.87, 739.0615, 0.03660592, NaN, NaN, NaN, 0.04577916, "- N/A -   "
21.93, 741.5454, 0.0367059, NaN, NaN, NaN, 0.04577916, "- N/A -   "
21.99, 744.5025, 0.0368253, NaN, NaN, NaN, 0.0372337, "- N/A -   "
22.05, 747.46, 0.03694191, NaN, NaN, NaN, 0.03112983, "- N/A -   "
22.11, 749.9434, 0.03704187, NaN, NaN, NaN, 0.0299091, "- N/A -   "
22.17, 751.954, 0.0371335, NaN, NaN, NaN, 0.0347922, "- N/A -   "
22.23, 754.32, 0.0372251, NaN, NaN, NaN, 0.0372337, "- N/A -   "
22.29, 756.922, 0.03733343, NaN, NaN, NaN, 0.0347922, "- N/A -   "
22.35, 759.6424, 0.0374389, NaN, NaN, NaN, 0.03112983, "- N/A -   "
22.41, 761.7715, 0.03753058, NaN, NaN, NaN, 0.0347922, "- N/A -   "
22.47, 763.9006, 0.03761666, NaN, NaN, NaN, 0.04089605, "- N/A -   "
22.53, 766.2662, 0.0377194, NaN, NaN, NaN, 0.04089605, "- N/A -   "
22.59, 768.75, 0.03781936, NaN, NaN, NaN, 0.0396753, "- N/A -   "
22.65, 771.234, 0.0379165, NaN, NaN, NaN, 0.04089605, "- N/A -   "
22.71, 773.8361, 0.0380221, NaN, NaN, NaN, 0.0396753, "- N/A -   "
22.77, 776.438, 0.0381248, NaN, NaN, NaN, 0.0372337, "- N/A -   "
22.83, 778.804, 0.0382248, NaN, NaN, NaN, 0.0372337, "- N/A -   "
22.89, 781.4061, 0.0383331, NaN, NaN, NaN, 0.0335714, "- N/A -   "
22.95, 783.7717, 0.03842747, NaN, NaN, NaN, 0.03601294, "- N/A -   "
23.01, 786.3739, 0.038533, NaN, NaN, NaN, 0.0335714, "- N/A -   "
23.07, 788.74, 0.0386329, NaN, NaN, NaN, 0.0335714, "- N/A -   "
23.13, 791.1051, 0.03873291, NaN, NaN, NaN, 0.0347922, "- N/A -   "
23.19, 793.2342, 0.03881899, NaN, NaN, NaN, 0.0396753, "- N/A -   "
23.25, 795.5998, 0.0389162, NaN, NaN, NaN, 0.04211683, "- N/A -   "
23.31, 797.7289, 0.03900781, NaN, NaN, NaN, 0.0445584, "- N/A -   "
23.37, 800.686, 0.0391189, NaN, NaN, NaN, 0.0396753, "- N/A -   "
23.43, 803.5246, 0.0392327, NaN, NaN, NaN, 0.0335714, "- N/A -   "
23.49, 806.0085, 0.0393355, NaN, NaN, NaN, 0.0335714, "- N/A -   "
23.55, 808.256, 0.0394299, NaN, NaN, NaN, 0.0347922, "- N/A -   "
23.61, 810.621, 0.0395326, NaN, NaN, NaN, 0.0347922, "- N/A -   "
23.67, 813.4602, 0.0396437, NaN, NaN, NaN, 0.0299091, "- N/A -   "
23.73, 816.0624, 0.0397464, NaN, NaN, NaN, 0.0286883, "- N/A -   "
23.79, 818.191, 0.0398353, NaN, NaN, NaN, 0.0323506, "- N/A -   "
23.85, 820.084, 0.0399158, NaN, NaN, NaN, 0.04089605, "- N/A -   "
23.91, 822.331, 0.0400102, NaN, NaN, NaN, 0.0445584, "- N/A -   "
23.97, 824.8151, 0.04011018, NaN, NaN, NaN, 0.0433376, "- N/A -   "
24.03, 827.417, 0.0402185, NaN, NaN, NaN, 0.0396753, "- N/A -   "
24.09, 830.02, 0.0403212, NaN, NaN, NaN, 0.0384545, "- N/A -   "
24.15, 832.74, 0.0404267, NaN, NaN, NaN, 0.03601294, "- N/A -   "
24.21, 835.342, 0.0405322, NaN, NaN, NaN, 0.0335714, "- N/A -   "
24.27, 837.944, 0.04064054, NaN, NaN, NaN, 0.0299091, "- N/A -   "
24.33, 840.192, 0.04073495, NaN, NaN, NaN, 0.0323506, "- N/A -   "
24.39, 842.6756, 0.04083769, NaN, NaN, NaN, 0.03112983, "- N/A -   "
24.45, 844.9229, 0.04092932, NaN, NaN, NaN, 0.0347922, "- N/A -   "
24.51, 846.9337, 0.0410126, NaN, NaN, NaN, 0.04211683, "- N/A -   "
24.57, 849.4176, 0.0411126, NaN, NaN, NaN, 0.04211683, "- N/A -   "
24.63, 851.9015, 0.0412153, NaN, NaN, NaN, 0.04089605, "- N/A -   "
24.69, 854.504, 0.0413208, NaN, NaN, NaN, 0.0384545, "- N/A -   "
24.75, 856.9876, 0.0414208, NaN, NaN, NaN, 0.0384545, "- N/A -   "
24.81, 859.8263, 0.0415347, NaN, NaN, NaN, 0.0323506, "- N/A -   "
24.87, 862.31, 0.04164017, NaN, NaN, NaN, 0.0299091, "- N/A -   "
24.93, 864.7941, 0.04174013, NaN, NaN, NaN, 0.0299091, "- N/A -   "
24.99, 867.041, 0.0418345, NaN, NaN, NaN, 0.0335714, "- N/A -   "
25.05, 869.407, 0.0419262, NaN, NaN, NaN, 0.03601294, "- N/A -   "
25.11, 871.8909, 0.0420289, NaN, NaN, NaN, 0.03601294, "- N/A -   "
25.17, 874.3748, 0.0421289, NaN, NaN, NaN, 0.0347922, "- N/A -   "
25.23, 876.5039, 0.04221773, NaN, NaN, NaN, 0.0396753, "- N/A -   "
25.29, 878.633, 0.0423094, NaN, NaN, NaN, 0.0445584, "- N/A -   "
25.35, 881.3534, 0.0424121, NaN, NaN, NaN, 0.04211683, "- N/A -   "
25.41, 884.3104, 0.042526, NaN, NaN, NaN, 0.03601294, "- N/A -   "
25.47, 886.9126, 0.0426287, NaN, NaN, NaN, 0.0347922, "- N/A -   "
25.53, 889.5148, 0.042737, NaN, NaN, NaN, 0.0323506, "- N/A -   "
25.59, 891.644, 0.04282862, NaN, NaN, NaN, 0.0347922, "- N/A -   "
25.65, 893.8912, 0.0429203, NaN, NaN, NaN, 0.0384545, "- N/A -   "
25.71, 896.612, 0.04303132, NaN, NaN, NaN, 0.0347922, "- N/A -   "
25.77, 899.2138, 0.0431341, NaN, NaN, NaN, 0.0335714, "- N/A -   "
25.83, 901.579, 0.04323125, NaN, NaN, NaN, 0.0347922, "- N/A -   "
25.89, 903.472, 0.04331455, NaN, NaN, NaN, 0.04089605, "- N/A -   "
25.95, 906.074, 0.0434173, NaN, NaN, NaN, 0.04089605, "- N/A -   "
26.01, 908.558, 0.0435173, NaN, NaN, NaN, 0.04089605, "- N/A -   "
26.07, 911.2785, 0.04362277, NaN, NaN, NaN, 0.0372337, "- N/A -   "
26.13, 913.8807, 0.04372551, NaN, NaN, NaN, 0.03601294, "- N/A -   "
26.19, 916.483, 0.04383658, NaN, NaN, NaN, 0.0335714, "- N/A -   "
26.25, 918.9667, 0.0439338, NaN, NaN, NaN, 0.0335714, "- N/A -   "
26.31, 921.4506, 0.0440365, NaN, NaN, NaN, 0.0323506, "- N/A -   "
26.37, 924.0528, 0.04413647, NaN, NaN, NaN, 0.0323506, "- N/A -   "
26.43, 926.3001, 0.0442337, NaN, NaN, NaN, 0.0347922, "- N/A -   "
26.49, 928.5475, 0.04432529, NaN, NaN, NaN, 0.0384545, "- N/A -   "
26.55, 931.0314, 0.0444225, NaN, NaN, NaN, 0.0384545, "- N/A -   "
26.61, 933.397, 0.04452244, NaN, NaN, NaN, 0.0396753, "- N/A -   "
26.67, 935.644, 0.04461685, NaN, NaN, NaN, 0.04211683, "- N/A -   "
26.73, 938.128, 0.04471126, NaN, NaN, NaN, 0.0445584, "- N/A -   "
26.79, 940.6121, 0.044814, NaN, NaN, NaN, 0.0433376, "- N/A -   "
26.849, 943.2143, 0.0449195, NaN, NaN, NaN, 0.0384545, "- N/A -   "