File: 2_Tensile_Data/Hamel_ForceTest_Bolt6_Test1.csv
Time, Load (lb), Position (in), AxialStrain (in), TransverseStrain (in), Auxiliary (), Control Out (V), Stress (psi)
0.0,1.06153,0.0, NaN, NaN, NaN,0.11048," ""- N/A -   """
0.01,1.29742,2.77675e-05, NaN, NaN, NaN,0.111701," ""- N/A -   """
0.02,1.65126,5.83118e-05, NaN, NaN, NaN,0.104376," ""- N/A -   """
0.03,1.88716,8.885606e-05, NaN, NaN, NaN,0.09949338," ""- N/A -   """
0.08,3.06663,0.0002138099, NaN, NaN, NaN,0.0799609," ""- N/A -   """
0.13,4.010214,0.000327657, NaN, NaN, NaN,0.06653238," ""- N/A -   """
0.18,4.953794,0.000441504, NaN, NaN, NaN,0.0543246," ""- N/A -   """
0.23,6.01532,0.0005581271, NaN, NaN, NaN,0.0396753," ""- N/A -   """
0.28,6.84095,0.0006525367, NaN, NaN, NaN,0.0347922," ""- N/A -   """
0.33,7.784533,0.000738616, NaN, NaN, NaN,0.0323506," ""- N/A -   """
0.38,8.37427,0.0008191418, NaN, NaN, NaN,0.0347922," ""- N/A -   """
0.43,9.199903,0.0008941141, NaN, NaN, NaN,0.0372337," ""- N/A -   """
0.48,9.907588,0.000971863, NaN, NaN, NaN,0.0396753," ""- N/A -   """
0.53,10.8512,0.00105794, NaN, NaN, NaN,0.0396753," ""- N/A -   """
0.58,11.5589,0.00113847, NaN, NaN, NaN,0.0396753," ""- N/A -   """
0.63,12.3845,0.001218994, NaN, NaN, NaN,0.04089605," ""- N/A -   """
0.68,13.2101,0.00129952, NaN, NaN, NaN,0.0433376," ""- N/A -   """
0.73,14.1537,0.00138005, NaN, NaN, NaN,0.0433376," ""- N/A -   """
0.78,15.2152,0.001477232, NaN, NaN, NaN,0.0384545," ""- N/A -   """
0.83,16.27675,0.00156886, NaN, NaN, NaN,0.0335714," ""- N/A -   """
0.88,17.2203,0.0016605, NaN, NaN, NaN,0.0299091," ""- N/A -   """
0.93,18.046,0.00174102, NaN, NaN, NaN,0.03112983," ""- N/A -   """
0.98,18.9895,0.00181877, NaN, NaN, NaN,0.0347922," ""- N/A -   """
1.03,19.8152,0.00189374, NaN, NaN, NaN,0.0372337," ""- N/A -   """
1.08,20.7588,0.001982601, NaN, NaN, NaN,0.03601294," ""- N/A -   """
1.13,21.8203,0.00206868, NaN, NaN, NaN,0.0335714," ""- N/A -   """
1.18,22.7639,0.00215198, NaN, NaN, NaN,0.0335714," ""- N/A -   """
1.23,23.82539,0.00223251, NaN, NaN, NaN,0.0347922," ""- N/A -   """
1.28,24.5331,0.0023047, NaN, NaN, NaN,0.0396753," ""- N/A -   """
1.33,25.5946,0.00238245, NaN, NaN, NaN,0.0433376," ""- N/A -   """
1.38,26.5382,0.00246853, NaN, NaN, NaN,0.04211683," ""- N/A -   """
1.43,27.5997,0.00255183, NaN, NaN, NaN,0.04089605," ""- N/A -   """
1.48,28.7792,0.00264347, NaN, NaN, NaN,0.0384545," ""- N/A -   """
1.53,29.84071,0.00272677, NaN, NaN, NaN,0.0372337," ""- N/A -   """
1.58,31.0202,0.00281563, NaN, NaN, NaN,0.0347922," ""- N/A -   """
1.63,32.08171,0.002898929, NaN, NaN, NaN,0.0347922," ""- N/A -   """
1.68,33.1432,0.002985008, NaN, NaN, NaN,0.0335714," ""- N/A -   """
1.73,34.2048,0.00307109, NaN, NaN, NaN,0.0323506," ""- N/A -   """
1.78,35.3842,0.003151613, NaN, NaN, NaN,0.0335714," ""- N/A -   """
1.83,36.32782,0.00323214, NaN, NaN, NaN,0.0347922," ""- N/A -   """
1.88,37.5073,0.003312665, NaN, NaN, NaN,0.03601294," ""- N/A -   """
1.93,38.68677,0.00339874, NaN, NaN, NaN,0.0347922," ""- N/A -   """
1.98,39.7483,0.00347372, NaN, NaN, NaN,0.0384545," ""- N/A -   """
2.03,40.69188,0.00355702, NaN, NaN, NaN,0.0384545," ""- N/A -   """
2.08,41.8714,0.003637545, NaN, NaN, NaN,0.0396753," ""- N/A -   """
2.13,43.0508,0.00371807, NaN, NaN, NaN,0.04211683," ""- N/A -   """
2.18,44.1124,0.00380137, NaN, NaN, NaN,0.04089605," ""- N/A -   """
2.23,45.5277,0.00389301, NaN, NaN, NaN,0.0372337," ""- N/A -   """
2.28,46.7072,0.003981862, NaN, NaN, NaN,0.0347922," ""- N/A -   """
2.33,47.8867,0.00406794, NaN, NaN, NaN,0.0335714," ""- N/A -   """
2.38,48.9482,0.00415124, NaN, NaN, NaN,0.0335714," ""- N/A -   """
2.43,50.1277,0.004234547, NaN, NaN, NaN,0.0347922," ""- N/A -   """
2.48,51.543,0.00432618, NaN, NaN, NaN,0.0299091," ""- N/A -   """
2.53,52.72252,0.004409482, NaN, NaN, NaN,0.0299091," ""- N/A -   """
2.58,53.902,0.00449001, NaN, NaN, NaN,0.0323506," ""- N/A -   """
2.63,54.8456,0.00456498, NaN, NaN, NaN,0.0347922," ""- N/A -   """
2.68,55.7892,0.004634399, NaN, NaN, NaN,0.04211683," ""- N/A -   """
2.73,56.9686,0.00470659, NaN, NaN, NaN,0.04699994," ""- N/A -   """
2.78,58.1481,0.0047899, NaN, NaN, NaN,0.04577916," ""- N/A -   """
2.83,59.68142,0.004884307, NaN, NaN, NaN,0.04211683," ""- N/A -   """
2.88,60.97884,0.004975939, NaN, NaN, NaN,0.0372337," ""- N/A -   """
2.93,62.3942,0.0050648, NaN, NaN, NaN,0.0347922," ""- N/A -   """
2.98,63.6916,0.005150875, NaN, NaN, NaN,0.0335714," ""- N/A -   """
3.03,65.107,0.00524251, NaN, NaN, NaN,0.0299091," ""- N/A -   """
3.08,66.40443,0.00532859, NaN, NaN, NaN,0.0299091," ""- N/A -   """
3.13,67.70185,0.00541189, NaN, NaN, NaN,0.0286883," ""- N/A -   """
3.18,68.9993,0.00549519, NaN, NaN, NaN,0.0286883," ""- N/A -   """
3.23,70.17874,0.00556739, NaN, NaN, NaN,0.0335714," ""- N/A -   """
3.28,71.24027,0.00563958, NaN, NaN, NaN,0.0384545," ""- N/A -   """
3.33,72.3018,0.005709002, NaN, NaN, NaN,0.0445584," ""- N/A -   """
3.38,73.83511,0.0057923, NaN, NaN, NaN,0.0445584," ""- N/A -   """
3.43,75.36844,0.00588116, NaN, NaN, NaN,0.04211683," ""- N/A -   """
3.48,76.7838,0.005964463, NaN, NaN, NaN,0.0433376," ""- N/A -   """
3.53,78.31712,0.006056096, NaN, NaN, NaN,0.0396753," ""- N/A -   """
3.58,79.96838,0.006147729, NaN, NaN, NaN,0.0372337," ""- N/A -   """
3.63,81.61965,0.006236585, NaN, NaN, NaN,0.0335714," ""- N/A -   """
3.68,83.15297,0.006330994, NaN, NaN, NaN,0.0299091," ""- N/A -   """
3.73,84.80424,0.006417074, NaN, NaN, NaN,0.0274675," ""- N/A -   """
3.78,86.1017,0.006494823, NaN, NaN, NaN,0.03112983," ""- N/A -   """
3.83,87.51702,0.006567018, NaN, NaN, NaN,0.0347922," ""- N/A -   """
3.88,89.05035,0.006650321, NaN, NaN, NaN,0.03601294," ""- N/A -   """
3.93,90.4657,0.006730847, NaN, NaN, NaN,0.03601294," ""- N/A -   """
3.98,91.88108,0.00681137, NaN, NaN, NaN,0.0372337," ""- N/A -   """
4.03,93.2965,0.006886345, NaN, NaN, NaN,0.04089605," ""- N/A -   """
4.08,94.7118,0.00696132, NaN, NaN, NaN,0.0445584," ""- N/A -   """
4.13,96.24514,0.007041843, NaN, NaN, NaN,0.04577916," ""- N/A -   """
4.18,98.01435,0.007130699, NaN, NaN, NaN,0.0433376," ""- N/A -   """
4.23,100.019,0.00723344, NaN, NaN, NaN,0.0347922," ""- N/A -   """
4.28,101.671,0.00732507, NaN, NaN, NaN,0.03112983," ""- N/A -   """
4.33,103.086,0.00740837, NaN, NaN, NaN,0.03112983," ""- N/A -   """
4.38,104.619,0.00748612, NaN, NaN, NaN,0.0335714," ""- N/A -   """
4.43,106.035,0.007566649, NaN, NaN, NaN,0.03601294," ""- N/A -   """
4.48,107.804,0.00764995, NaN, NaN, NaN,0.03601294," ""- N/A -   """
4.53,109.455,0.00773881, NaN, NaN, NaN,0.0323506," ""- N/A -   """
4.58,110.989,0.007819334, NaN, NaN, NaN,0.0335714," ""- N/A -   """
4.63,112.404,0.007897083, NaN, NaN, NaN,0.03601294," ""- N/A -   """
4.68,113.583,0.007966501, NaN, NaN, NaN,0.04211683," ""- N/A -   """
4.73,115.235,0.008047027, NaN, NaN, NaN,0.0445584," ""- N/A -   """
4.78,117.004,0.008135883, NaN, NaN, NaN,0.04089605," ""- N/A -   """
4.83,118.7731,0.008224739, NaN, NaN, NaN,0.0396753," ""- N/A -   """
4.88,120.542,0.008313595, NaN, NaN, NaN,0.0372337," ""- N/A -   """
4.93,122.194,0.008396898, NaN, NaN, NaN,0.03601294," ""- N/A -   """
4.98,123.609,0.008480201, NaN, NaN, NaN,0.0372337," ""- N/A -   """
5.03,125.142,0.008560726, NaN, NaN, NaN,0.0384545," ""- N/A -   """
5.08,127.029,0.008649582, NaN, NaN, NaN,0.0347922," ""- N/A -   """
5.13,128.799,0.008738439, NaN, NaN, NaN,0.0323506," ""- N/A -   """
5.18,130.332,0.008821741, NaN, NaN, NaN,0.0323506," ""- N/A -   """
5.23,131.865,0.008905044, NaN, NaN, NaN,0.0335714," ""- N/A -   """
5.28,133.634,0.00898557, NaN, NaN, NaN,0.0347922," ""- N/A -   """
5.33,135.286,0.009074425, NaN, NaN, NaN,0.0323506," ""- N/A -   """
5.38,136.819,0.009149398, NaN, NaN, NaN,0.03601294," ""- N/A -   """
5.43,138.234,0.009221593, NaN, NaN, NaN,0.0396753," ""- N/A -   """
5.48,139.65,0.009299342, NaN, NaN, NaN,0.04211683," ""- N/A -   """
5.53,141.301,0.009379867, NaN, NaN, NaN,0.0433376," ""- N/A -   """
5.58,142.952,0.009463171, NaN, NaN, NaN,0.0445584," ""- N/A -   """
5.63,144.8395,0.00955758, NaN, NaN, NaN,0.0384545," ""- N/A -   """
5.68,146.727,0.00964921, NaN, NaN, NaN,0.0347922," ""- N/A -   """
5.73,148.378,0.009732516, NaN, NaN, NaN,0.0347922," ""- N/A -   """
5.78,150.029,0.009818594, NaN, NaN, NaN,0.0347922," ""- N/A -   """
5.83,151.68,0.009896344, NaN, NaN, NaN,0.03601294," ""- N/A -   """
5.88,153.45,0.009990754, NaN, NaN, NaN,0.0323506," ""- N/A -   """
5.93,155.455,0.0100824, NaN, NaN, NaN,0.0274675," ""- N/A -   """
5.98,156.87,0.0101629, NaN, NaN, NaN,0.0286883," ""- N/A -   """
6.03,158.168,0.01023233, NaN, NaN, NaN,0.0347922," ""- N/A -   """
6.08,159.229,0.0102962, NaN, NaN, NaN,0.0433376," ""- N/A -   """
6.13,160.88,0.0103739, NaN, NaN, NaN,0.04699994," ""- N/A -   """
6.18,162.532,0.01045447, NaN, NaN, NaN,0.04699994," ""- N/A -   """
6.23,164.419,0.0105461, NaN, NaN, NaN,0.0433376," ""- N/A -   """
6.28,166.188,0.0106405, NaN, NaN, NaN,0.0384545," ""- N/A -   """
6.29,166.66,0.01066, NaN, NaN, NaN,0.0384545," ""- N/A -   """
6.3,166.896,0.0106766, NaN, NaN, NaN,0.0372337," ""- N/A -   """
6.32,167.7213,0.0107155, NaN, NaN, NaN,0.0347922," ""- N/A -   """
6.34,168.311,0.0107488, NaN, NaN, NaN,0.03601294," ""- N/A -   """
6.36,168.901,0.0107794, NaN, NaN, NaN,0.03601294," ""- N/A -   """
6.38,169.491,0.0108154, NaN, NaN, NaN,0.03601294," ""- N/A -   """
6.4,170.08,0.0108488, NaN, NaN, NaN,0.0347922," ""- N/A -   """
6.42,170.788,0.0108849, NaN, NaN, NaN,0.0335714," ""- N/A -   """
6.44,171.732,0.0109237, NaN, NaN, NaN,0.03112983," ""- N/A -   """
6.46,172.4392,0.0109654, NaN, NaN, NaN,0.0286883," ""- N/A -   """
6.48,173.029,0.0109987, NaN, NaN, NaN,0.0274675," ""- N/A -   """
6.5,173.855,0.0110348, NaN, NaN, NaN,0.0262467," ""- N/A -   """
6.52,174.326,0.0110709, NaN, NaN, NaN,0.0250259," ""- N/A -   """
6.54,174.9161,0.0111015, NaN, NaN, NaN,0.0274675," ""- N/A -   """
6.56,175.506,0.011132, NaN, NaN, NaN,0.0274675," ""- N/A -   """
6.58,175.978,0.0111625, NaN, NaN, NaN,0.0286883," ""- N/A -   """
6.6,176.567,0.0111931, NaN, NaN, NaN,0.0299091," ""- N/A -   """
6.62,177.1571,0.0112236, NaN, NaN, NaN,0.03112983," ""- N/A -   """
6.64,177.629,0.0112514, NaN, NaN, NaN,0.0335714," ""- N/A -   """
6.66,178.1007,0.0112819, NaN, NaN, NaN,0.03601294," ""- N/A -   """
6.68,178.69,0.0113097, NaN, NaN, NaN,0.0372337," ""- N/A -   """
6.7,179.162,0.0113403, NaN, NaN, NaN,0.0384545," ""- N/A -   """
6.72,179.87,0.0113708, NaN, NaN, NaN,0.0396753," ""- N/A -   """
6.74,180.46,0.0114013, NaN, NaN, NaN,0.04089605," ""- N/A -   """
6.76,180.931,0.0114319, NaN, NaN, NaN,0.04211683," ""- N/A -   """
6.78,181.403,0.0114624, NaN, NaN, NaN,0.0433376," ""- N/A -   """
6.8,182.1109,0.0114985, NaN, NaN, NaN,0.04211683," ""- N/A -   """
6.82,182.819,0.0115319, NaN, NaN, NaN,0.04211683," ""- N/A -   """
6.84,183.408,0.0115652, NaN, NaN, NaN,0.04211683," ""- N/A -   """
6.86,183.998,0.0115957, NaN, NaN, NaN,0.0433376," ""- N/A -   """
6.88,184.47,0.011629, NaN, NaN, NaN,0.0433376," ""- N/A -   """
6.9,185.06,0.0116624, NaN, NaN, NaN,0.0433376," ""- N/A -   """
6.92,185.767,0.0116985, NaN, NaN, NaN,0.0433376," ""- N/A -   """
6.94,186.357,0.0117346, NaN, NaN, NaN,0.04089605," ""- N/A -   """
6.96,186.947,0.0117679, NaN, NaN, NaN,0.04089605," ""- N/A -   """
6.98,187.654,0.0118067, NaN, NaN, NaN,0.0396753," ""- N/A -   """
7,188.48,0.0118456, NaN, NaN, NaN,0.03601294," ""- N/A -   """
7.02,189.188,0.0118845, NaN, NaN, NaN,0.0335714," ""- N/A -   """
7.04,189.895,0.0119234, NaN, NaN, NaN,0.03112983," ""- N/A -   """
7.06,190.485,0.01195947, NaN, NaN, NaN,0.0299091," ""- N/A -   """
7.08,191.075,0.0119928, NaN, NaN, NaN,0.0299091," ""- N/A -   """
7.1,191.547,0.0120261, NaN, NaN, NaN,0.0299091," ""- N/A -   """
7.12,192.254,0.0120594, NaN, NaN, NaN,0.0299091," ""- N/A -   """
7.14,192.962,0.0120983, NaN, NaN, NaN,0.0286883," ""- N/A -   """
7.16,193.5518,0.0121316, NaN, NaN, NaN,0.0274675," ""- N/A -   """
7.18,194.024,0.0121594, NaN, NaN, NaN,0.0299091," ""- N/A -   """
7.2,194.495,0.0121927, NaN, NaN, NaN,0.03112983," ""- N/A -   """
7.22,195.203,0.0122233, NaN, NaN, NaN,0.03112983," ""- N/A -   """
7.24,195.675,0.0122538, NaN, NaN, NaN,0.0323506," ""- N/A -   """
7.26,196.147,0.01228435, NaN, NaN, NaN,0.0335714," ""- N/A -   """
7.28,196.618,0.0123121, NaN, NaN, NaN,0.03601294," ""- N/A -   """
7.3,197.09,0.01234544, NaN, NaN, NaN,0.0372337," ""- N/A -   """
7.32,197.798,0.01237876, NaN, NaN, NaN,0.03601294," ""- N/A -   """
7.34,198.388,0.0124121, NaN, NaN, NaN,0.0372337," ""- N/A -   """
7.36,199.095,0.0124454, NaN, NaN, NaN,0.0372337," ""- N/A -   """
7.38,199.685,0.0124787, NaN, NaN, NaN,0.0372337," ""- N/A -   """
7.4,200.157,0.0125065, NaN, NaN, NaN,0.0384545," ""- N/A -   """
7.42,200.629,0.012537, NaN, NaN, NaN,0.04089605," ""- N/A -   """
7.44,201.1,0.0125648, NaN, NaN, NaN,0.04211683," ""- N/A -   """
7.46,201.69,0.0125953, NaN, NaN, NaN,0.0433376," ""- N/A -   """
7.48,202.28,0.0126314, NaN, NaN, NaN,0.0433376," ""- N/A -   """
7.5,202.7517,0.012662, NaN, NaN, NaN,0.0433376," ""- N/A -   """
7.52,203.2235,0.01269531, NaN, NaN, NaN,0.0445584," ""- N/A -   """
7.54,203.931,0.0127259, NaN, NaN, NaN,0.0445584," ""- N/A -   """
7.56,204.521,0.012762, NaN, NaN, NaN,0.0433376," ""- N/A -   """
7.58,205.2286,0.012798, NaN, NaN, NaN,0.04211683," ""- N/A -   """
7.6,205.936,0.0128397, NaN, NaN, NaN,0.0384545," ""- N/A -   """
7.62,206.762,0.0128786, NaN, NaN, NaN,0.03601294," ""- N/A -   """
7.64,207.352,0.01291745, NaN, NaN, NaN,0.0335714," ""- N/A -   """
7.66,207.941,0.0129563, NaN, NaN, NaN,0.0323506," ""- N/A -   """
7.68,208.767,0.0129924, NaN, NaN, NaN,0.03112983," ""- N/A -   """
7.7,209.475,0.0130257, NaN, NaN, NaN,0.0299091," ""- N/A -   """
7.72,209.946,0.0130591, NaN, NaN, NaN,0.0299091," ""- N/A -   """
7.74,210.418,0.0130924, NaN, NaN, NaN,0.0299091," ""- N/A -   """
7.76,210.89,0.01312293, NaN, NaN, NaN,0.03112983," ""- N/A -   """
7.78,211.362,0.0131507, NaN, NaN, NaN,0.0335714," ""- N/A -   """
7.8,211.9516,0.0131812, NaN, NaN, NaN,0.03601294," ""- N/A -   """
7.82,212.541,0.0132118, NaN, NaN, NaN,0.03601294," ""- N/A -   """
7.84,213.131,0.0132451, NaN, NaN, NaN,0.03601294," ""- N/A -   """
7.86,213.721,0.0132812, NaN, NaN, NaN,0.03601294," ""- N/A -   """
7.88,214.1926,0.0133145, NaN, NaN, NaN,0.0347922," ""- N/A -   """
7.9,215.018,0.0133506, NaN, NaN, NaN,0.0335714," ""- N/A -   """
7.92,215.608,0.0133867, NaN, NaN, NaN,0.0323506," ""- N/A -   """
7.94,216.316,0.0134256, NaN, NaN, NaN,0.03112983," ""- N/A -   """
7.96,216.787,0.0134589, NaN, NaN, NaN,0.0299091," ""- N/A -   """
7.98,217.377,0.0134895, NaN, NaN, NaN,0.03112983," ""- N/A -   """
8,217.849,0.0135172, NaN, NaN, NaN,0.0335714," ""- N/A -   """
8.02,218.321,0.0135478, NaN, NaN, NaN,0.0347922," ""- N/A -   """
8.04,218.793,0.0135783, NaN, NaN, NaN,0.0372337," ""- N/A -   """
8.06,219.3823,0.0136116, NaN, NaN, NaN,0.0372337," ""- N/A -   """
8.08,219.972,0.0136422, NaN, NaN, NaN,0.0384545," ""- N/A -   """
8.1,220.444,0.0136727, NaN, NaN, NaN,0.0396753," ""- N/A -   """
8.12,220.916,0.0137005, NaN, NaN, NaN,0.04211683," ""- N/A -   """
8.14,221.623,0.0137366, NaN, NaN, NaN,0.04089605," ""- N/A -   """
8.16,222.213,0.0137727, NaN, NaN, NaN,0.0396753," ""- N/A -   """
8.18,222.921,0.0138116, NaN, NaN, NaN,0.0384545," ""- N/A -   """
8.2,223.51,0.0138449, NaN, NaN, NaN,0.0372337," ""- N/A -   """
8.22,224.1002,0.0138782, NaN, NaN, NaN,0.0372337," ""- N/A -   """
8.24,224.69,0.01390875, NaN, NaN, NaN,0.0384545," ""- N/A -   """
8.26,225.28,0.0139393, NaN, NaN, NaN,0.0396753," ""- N/A -   """
8.28,225.8694,0.0139754, NaN, NaN, NaN,0.0384545," ""- N/A -   """
8.3,226.459,0.0140087, NaN, NaN, NaN,0.0384545," ""- N/A -   """
8.32,227.167,0.0140448, NaN, NaN, NaN,0.0372337," ""- N/A -   """
8.34,227.639,0.0140781, NaN, NaN, NaN,0.0372337," ""- N/A -   """
8.36,228.228,0.0141142, NaN, NaN, NaN,0.0372337," ""- N/A -   """
8.38,228.936,0.0141476, NaN, NaN, NaN,0.03601294," ""- N/A -   """
8.4,229.526,0.0141809, NaN, NaN, NaN,0.03601294," ""- N/A -   """
8.42,230.116,0.01421697, NaN, NaN, NaN,0.0347922," ""- N/A -   """
8.44,230.8232,0.0142503, NaN, NaN, NaN,0.0347922," ""- N/A -   """
8.46,231.413,0.0142836, NaN, NaN, NaN,0.0347922," ""- N/A -   """
8.48,232.121,0.0143169, NaN, NaN, NaN,0.0347922," ""- N/A -   """
8.5,232.592,0.01435303, NaN, NaN, NaN,0.0347922," ""- N/A -   """
8.52,233.3001,0.0143891, NaN, NaN, NaN,0.0335714," ""- N/A -   """
8.54,233.89,0.0144224, NaN, NaN, NaN,0.0323506," ""- N/A -   """
8.56,234.598,0.0144585, NaN, NaN, NaN,0.0323506," ""- N/A -   """
8.58,235.187,0.0144891, NaN, NaN, NaN,0.0323506," ""- N/A -   """
8.6,235.777,0.0145196, NaN, NaN, NaN,0.0335714," ""- N/A -   """
8.62,236.367,0.0145502, NaN, NaN, NaN,0.0347922," ""- N/A -   """
8.64,236.956,0.0145835, NaN, NaN, NaN,0.03601294," ""- N/A -   """
8.66,237.428,0.014614, NaN, NaN, NaN,0.03601294," ""- N/A -   """
8.68,237.9,0.0146446, NaN, NaN, NaN,0.0372337," ""- N/A -   """
8.7,238.49,0.0146779, NaN, NaN, NaN,0.0384545," ""- N/A -   """
8.72,239.197,0.0147112, NaN, NaN, NaN,0.0372337," ""- N/A -   """
8.74,239.787,0.0147473, NaN, NaN, NaN,0.0372337," ""- N/A -   """
8.76,240.613,0.0147779, NaN, NaN, NaN,0.0372337," ""- N/A -   """
8.78,240.967,0.0148084, NaN, NaN, NaN,0.0384545," ""- N/A -   """
8.8,241.556,0.014839, NaN, NaN, NaN,0.0396753," ""- N/A -   """
8.82,242.028,0.0148695, NaN, NaN, NaN,0.04089605," ""- N/A -   """
[...]
10.92,308.6,0.0183682, NaN, NaN, NaN,0.04089605," ""- N/A -   """
11.07,313.9026,0.0186376, NaN, NaN, NaN,0.0335714," ""- N/A -   """
11.22,318.144,0.0188625, NaN, NaN, NaN,0.0433376," ""- N/A -   """
11.37,323.6822,0.0191374, NaN, NaN, NaN,0.0323506," ""- N/A -   """
11.52,328.16,0.0193734, NaN, NaN, NaN,0.0384545," ""- N/A -   """
11.67,333.226,0.0196205, NaN, NaN, NaN,0.0396753," ""- N/A -   """
11.82,338.41,0.01988432, NaN, NaN, NaN,0.0335714," ""- N/A -   """
11.97,343.3591,0.020137, NaN, NaN, NaN,0.0323506," ""- N/A -   """
12.12,348.3078,0.0203841, NaN, NaN, NaN,0.0335714," ""- N/A -   """
12.27,352.903,0.0206229, NaN, NaN, NaN,0.0384545," ""- N/A -   """
12.42,357.852,0.0208673, NaN, NaN, NaN,0.04089605," ""- N/A -   """
12.57,363.5074,0.0211366, NaN, NaN, NaN,0.0335714," ""- N/A -   """
12.72,368.692,0.0213949, NaN, NaN, NaN,0.0299091," ""- N/A -   """
12.87,373.0513,0.0216226, NaN, NaN, NaN,0.0396753," ""- N/A -   """
13.02,377.764,0.0218558, NaN, NaN, NaN,0.0482207," ""- N/A -   """
13.17,383.7735,0.0221363, NaN, NaN, NaN,0.0335714," ""- N/A -   """
13.32,389.076,0.0224001, NaN, NaN, NaN,0.0274675," ""- N/A -   """
13.47,394.024,0.02263608, NaN, NaN, NaN,0.0335714," ""- N/A -   """
13.62,398.3839,0.022861, NaN, NaN, NaN,0.0445584," ""- N/A -   """
13.77,404.04,0.0231192, NaN, NaN, NaN,0.04089605," ""- N/A -   """
13.92,409.813,0.0233941, NaN, NaN, NaN,0.0299091," ""- N/A -   """
14.07,414.762,0.0236329, NaN, NaN, NaN,0.0347922," ""- N/A -   """
14.22,419.828,0.0238745, NaN, NaN, NaN,0.0384545," ""- N/A -   """
14.37,424.659,0.0241105, NaN, NaN, NaN,0.04577916," ""- N/A -   """
14.52,430.904,0.0243938, NaN, NaN, NaN,0.0299091," ""- N/A -   """
14.67,436.088,0.0246409, NaN, NaN, NaN,0.0323506," ""- N/A -   """
14.82,441.2726,0.024888, NaN, NaN, NaN,0.0335714," ""- N/A -   """
14.97,445.986,0.0251157, NaN, NaN, NaN,0.0433376," ""- N/A -   """
15.12,451.759,0.0253767, NaN, NaN, NaN,0.0384545," ""- N/A -   """
15.27,457.297,0.0256294, NaN, NaN, NaN,0.03601294," ""- N/A -   """
15.42,462.717,0.02588488, NaN, NaN, NaN,0.0335714," ""- N/A -   """
15.57,468.019,0.0261348, NaN, NaN, NaN,0.0335714," ""- N/A -   """
15.72,473.086,0.026368, NaN, NaN, NaN,0.04089605," ""- N/A -   """
15.87,478.6235,0.0266235, NaN, NaN, NaN,0.0396753," ""- N/A -   """
16.02,484.515,0.0268901, NaN, NaN, NaN,0.03112983," ""- N/A -   """
16.17,490.17,0.0271483, NaN, NaN, NaN,0.0274675," ""- N/A -   """
16.32,494.883,0.0273732, NaN, NaN, NaN,0.0396753," ""- N/A -   """
16.47,500.186,0.02761202, NaN, NaN, NaN,0.0433376," ""- N/A -   """
16.62,506.195,0.0278814, NaN, NaN, NaN,0.03601294," ""- N/A -   """
16.77,512.2039,0.0281452, NaN, NaN, NaN,0.0286883," ""- N/A -   """
16.92,517.285,0.028384, NaN, NaN, NaN,0.0335714," ""- N/A -   """
17.07,522.1345,0.02861165, NaN, NaN, NaN,0.0433376," ""- N/A -   """
17.22,528.1668,0.0288727, NaN, NaN, NaN,0.0396753," ""- N/A -   """
17.37,534.554,0.0291503, NaN, NaN, NaN,0.0274675," ""- N/A -   """
17.52,539.758,0.0293864, NaN, NaN, NaN,0.0347922," ""- N/A -   """
17.67,545.1993,0.0296252, NaN, NaN, NaN,0.0384545," ""- N/A -   """
17.82,550.4036,0.0298584, NaN, NaN, NaN,0.04577916," ""- N/A -   """
17.97,556.909,0.0301389, NaN, NaN, NaN,0.0323506," ""- N/A -   """
18.12,562.1134,0.0303777, NaN, NaN, NaN,0.0372337," ""- N/A -   """
18.27,568.146,0.0306331, NaN, NaN, NaN,0.0347922," ""- N/A -   """
18.42,573.4684,0.0308719, NaN, NaN, NaN,0.0396753," ""- N/A -   """
18.57,579.3824,0.0311302, NaN, NaN, NaN,0.0372337," ""- N/A -   """
18.72,585.2965,0.0313856, NaN, NaN, NaN,0.0347922," ""- N/A -   """
18.87,591.2105,0.03164109, NaN, NaN, NaN,0.03112983," ""- N/A -   """
19.02,596.7697,0.03188544, NaN, NaN, NaN,0.0347922," ""- N/A -   """
19.17,601.974,0.0321104, NaN, NaN, NaN,0.0445584," ""- N/A -   """
19.32,608.5978,0.0323853, NaN, NaN, NaN,0.0347922," ""- N/A -   """
19.47,614.2753,0.03262961, NaN, NaN, NaN,0.03601294," ""- N/A -   """
19.62,620.3076,0.0328906, NaN, NaN, NaN,0.0323506," ""- N/A -   """
19.77,625.2754,0.0331128, NaN, NaN, NaN,0.0445584," ""- N/A -   """
19.92,631.663,0.03337378, NaN, NaN, NaN,0.0396753," ""- N/A -   """
20.07,638.05,0.0336431, NaN, NaN, NaN,0.0299091," ""- N/A -   """
20.22,644.2003,0.0339014, NaN, NaN, NaN,0.0262467," ""- N/A -   """
20.37,649.168,0.03411795, NaN, NaN, NaN,0.04089605," ""- N/A -   """
20.52,654.964,0.0343595, NaN, NaN, NaN,0.0445584," ""- N/A -   """
20.67,661.824,0.0346372, NaN, NaN, NaN,0.0323506," ""- N/A -   """
20.82,667.8565,0.0348899, NaN, NaN, NaN,0.03112983," ""- N/A -   """
20.97,673.416,0.03512591, NaN, NaN, NaN,0.0372337," ""- N/A -   """
21.12,679.2115,0.03536471, NaN, NaN, NaN,0.04211683," ""- N/A -   """
21.27,685.7169,0.0356257, NaN, NaN, NaN,0.0372337," ""- N/A -   """
21.42,692.104,0.0358923, NaN, NaN, NaN,0.0299091," ""- N/A -   """
21.57,698.1364,0.0361394, NaN, NaN, NaN,0.03112983," ""- N/A -   """
21.72,703.6956,0.03637267, NaN, NaN, NaN,0.0396753," ""- N/A -   """
21.87,709.8462,0.0366254, NaN, NaN, NaN,0.0384545," ""- N/A -   """
22.02,715.9968,0.036878, NaN, NaN, NaN,0.0384545," ""- N/A -   """
22.17,722.384,0.03713628, NaN, NaN, NaN,0.0335714," ""- N/A -   """
22.32,728.1797,0.03738341, NaN, NaN, NaN,0.03601294," ""- N/A -   """
22.47,733.9755,0.03762499, NaN, NaN, NaN,0.0396753," ""- N/A -   """
22.62,740.0078,0.0378638, NaN, NaN, NaN,0.0433376," ""- N/A -   """
22.77,746.868,0.0381387, NaN, NaN, NaN,0.0323506," ""- N/A -   """
22.92,753.019,0.0383941, NaN, NaN, NaN,0.0299091," ""- N/A -   """
23.07,758.933,0.0386385, NaN, NaN, NaN,0.0335714," ""- N/A -   """
23.22,764.1371,0.03885509, NaN, NaN, NaN,0.04699994," ""- N/A -   """
23.37,770.879,0.0391272, NaN, NaN, NaN,0.0372337," ""- N/A -   """
23.52,777.6211,0.0393966, NaN, NaN, NaN,0.0286883," ""- N/A -   """
23.67,783.2986,0.0396326, NaN, NaN, NaN,0.0347922," ""- N/A -   """
23.82,788.6212,0.03986028, NaN, NaN, NaN,0.0445584," ""- N/A -   """
23.97,794.89,0.0401157, NaN, NaN, NaN,0.04211683," ""- N/A -   """
24.12,802.1053,0.04040174, NaN, NaN, NaN,0.0274675," ""- N/A -   """
24.27,807.901,0.0406378, NaN, NaN, NaN,0.0323506," ""- N/A -   """
24.42,814.17,0.0408877, NaN, NaN, NaN,0.0323506," ""- N/A -   """
24.57,819.4925,0.0411154, NaN, NaN, NaN,0.0433376," ""- N/A -   """
24.72,825.998,0.0413736, NaN, NaN, NaN,0.0384545," ""- N/A -   """
24.87,832.385,0.0416291, NaN, NaN, NaN,0.0372337," ""- N/A -   """
25.02,839.0089,0.0418929, NaN, NaN, NaN,0.0299091," ""- N/A -   """
25.17,844.568,0.04212055, NaN, NaN, NaN,0.0396753," ""- N/A -   """
25.32,850.7187,0.0423705, NaN, NaN, NaN,0.0396753," ""- N/A -   """
25.47,857.3424,0.0426315, NaN, NaN, NaN,0.0347922," ""- N/A -   """
25.62,863.848,0.04288971, NaN, NaN, NaN,0.03112983," ""- N/A -   """
25.77,870.117,0.0431424, NaN, NaN, NaN,0.0299091," ""- N/A -   """
25.92,875.5577,0.0433645, NaN, NaN, NaN,0.04211683," ""- N/A -   """
26.07,881.827,0.0436117, NaN, NaN, NaN,0.0433376," ""- N/A -   """
26.22,888.8051,0.0438893, NaN, NaN, NaN,0.0335714," ""- N/A -   """
26.37,895.192,0.0441448, NaN, NaN, NaN,0.0299091," ""- N/A -   """
26.52,900.8698,0.04437527, NaN, NaN, NaN,0.0384545," ""- N/A -   """
26.67,906.6655,0.04460852, NaN, NaN, NaN,0.04577916," ""- N/A -   """
26.82,913.8807,0.044889, NaN, NaN, NaN,0.0335714," ""- N/A -   """
26.97,920.3861,0.04514721, NaN, NaN, NaN,0.0299091," ""- N/A -   """
27.12,926.3001,0.045386, NaN, NaN, NaN,0.0335714," ""- N/A -   """
27.27,931.8593,0.0456137, NaN, NaN, NaN,0.0445584," ""- N/A -   """
27.42,938.4831,0.04587194, NaN, NaN, NaN,0.04089605," ""- N/A -   """
27.57,945.4617,0.0461413, NaN, NaN, NaN,0.03112983," ""- N/A -   """
27.72,951.612,0.0463829, NaN, NaN, NaN,0.03601294," ""- N/A -   """
27.87,957.7628,0.04662722, NaN, NaN, NaN,0.0372337," ""- N/A -   """
28.02,963.559,0.0468605, NaN, NaN, NaN,0.0445584," ""- N/A -   """
28.17,971.129,0.0471465, NaN, NaN, NaN,0.0299091," ""- N/A -   """
28.32,976.8061,0.0473769, NaN, NaN, NaN,0.0372337," ""- N/A -   """
28.47,983.7846,0.0476407, NaN, NaN, NaN,0.03112983," ""- N/A -   """
28.62,989.3438,0.0478712, NaN, NaN, NaN,0.04089605," ""- N/A -   """
28.77,995.9675,0.0481211, NaN, NaN, NaN,0.0396753," ""- N/A -   """
28.92,1002.35,0.04837657, NaN, NaN, NaN,0.0372337," ""- N/A -   """
29.07,1008.98,0.0486376, NaN, NaN, NaN,0.0323506," ""- N/A -   """
29.22,1015.385,0.04889027, NaN, NaN, NaN,0.0323506," ""- N/A -   """
29.37,1020.99,0.0491124, NaN, NaN, NaN,0.0433376," ""- N/A -   """
29.52,1028.03,0.04938176, NaN, NaN, NaN,0.03601294," ""- N/A -   """
29.67,1034.35,0.04963444, NaN, NaN, NaN,0.0335714," ""- N/A -   """
29.808,1040.79,0.0498788, NaN, NaN, NaN,0.0286883," ""- N/A -   """