File: 2_Tensile_Data/Hamel_ForceTest_Bolt7_Test10.csv
Time, Load (lb), Position (in), AxialStrain (in), TransverseStrain (in), Auxiliary (), Control Out (V), Stress (psi)
0.0, 11.323, 0.0, NaN, NaN, NaN, -0.006714277, "- N/A -   "
0.01, 11.4409, 2.776752E-6, NaN, NaN, NaN, -6.103888E-4, "- N/A -   "
0.02, 11.4409, 2.776752E-6, NaN, NaN, NaN, 0.006714277, "- N/A -   "
0.03, 11.323, 2.776752E-6, NaN, NaN, NaN, 0.0250259, "- N/A -   "
0.04, 11.4409, 8.330256E-6, NaN, NaN, NaN, 0.04211683, "- N/A -   "
0.05, 11.6768, 1.94373e-05, NaN, NaN, NaN, 0.05676616, "- N/A -   "
0.06, 12.14859, 3.3321e-05, NaN, NaN, NaN, 0.0701947, "- N/A -   "
0.07, 12.5024, 5.5535e-05, NaN, NaN, NaN, 0.0799609, "- N/A -   "
0.08, 13.2101, 8.05258E-5, NaN, NaN, NaN, 0.08850638, "- N/A -   "
0.09, 13.9178, 0.00011107, NaN, NaN, NaN, 0.09461027, "- N/A -   "
0.1, 14.5075, 0.000141614, NaN, NaN, NaN, 0.09461027, "- N/A -   "
0.11, 15.2152, 0.000174935, NaN, NaN, NaN, 0.08850638, "- N/A -   "
0.12, 15.805, 0.000202703, NaN, NaN, NaN, 0.08362327, "- N/A -   "
0.13, 16.3947, 0.000227694, NaN, NaN, NaN, 0.0799609, "- N/A -   "
0.14, 16.9844, 2.526844E-4, NaN, NaN, NaN, 0.0762986, "- N/A -   "
0.15, 17.4562, 0.000274898, NaN, NaN, NaN, 0.07385705, "- N/A -   "
0.16, 17.8101, 0.000294336, NaN, NaN, NaN, 0.07141549, "- N/A -   "
0.17, 18.2819, 3.165497E-4, NaN, NaN, NaN, 0.0689739, "- N/A -   "
0.18, 18.6357, 0.000335987, NaN, NaN, NaN, 0.06775316, "- N/A -   "
0.19, 18.9895, 0.000352647, NaN, NaN, NaN, 0.06775316, "- N/A -   "
0.2, 19.4613, 3.748615E-4, NaN, NaN, NaN, 0.06653238, "- N/A -   "
0.21, 19.8152, 0.000394299, NaN, NaN, NaN, 0.0653116, "- N/A -   "
0.22, 20.169, 4.13736E-4, NaN, NaN, NaN, 0.06287005, "- N/A -   "
0.23, 20.52286, 4.331733E-4, NaN, NaN, NaN, 0.06164927, "- N/A -   "
0.24, 20.8767, 0.000449834, NaN, NaN, NaN, 0.06164927, "- N/A -   "
0.25, 21.2305, 4.720478E-4, NaN, NaN, NaN, 0.0604285, "- N/A -   "
0.26, 21.5844, 0.000491485, NaN, NaN, NaN, 0.0592077, "- N/A -   "
0.27, 21.93823, 0.000510922, NaN, NaN, NaN, 0.0579869, "- N/A -   "
0.28, 22.29207, 0.000527583, NaN, NaN, NaN, 0.05676616, "- N/A -   "
0.29, 22.6459, 5.470201E-4, NaN, NaN, NaN, 0.0555454, "- N/A -   "
0.3, 22.9998, 5.664574E-4, NaN, NaN, NaN, 0.0543246, "- N/A -   "
0.31, 23.4715, 0.000588671, NaN, NaN, NaN, 0.0531038, "- N/A -   "
0.32, 23.82539, 0.000608109, NaN, NaN, NaN, 0.05066227, "- N/A -   "
0.33, 24.1792, 0.000627546, NaN, NaN, NaN, 0.0494415, "- N/A -   "
0.34, 24.5331, 0.000646983, NaN, NaN, NaN, 0.0482207, "- N/A -   "
0.35, 25.0049, 0.00066642, NaN, NaN, NaN, 0.04699994, "- N/A -   "
0.36, 25.3587, 6.858577E-4, NaN, NaN, NaN, 0.04577916, "- N/A -   "
0.37, 25.5946, 0.000705295, NaN, NaN, NaN, 0.0445584, "- N/A -   "
0.38, 26.0664, 0.000724732, NaN, NaN, NaN, 0.0433376, "- N/A -   "
0.39, 26.4202, 0.000744169, NaN, NaN, NaN, 0.04211683, "- N/A -   "
0.4, 26.892, 7.6083E-4, NaN, NaN, NaN, 0.04211683, "- N/A -   "
0.41, 27.1279, 0.000780267, NaN, NaN, NaN, 0.04089605, "- N/A -   "
0.42, 27.4818, 7.997045E-4, NaN, NaN, NaN, 0.0396753, "- N/A -   "
0.43, 27.95355, 8.191418E-4, NaN, NaN, NaN, 0.0396753, "- N/A -   "
0.44, 28.1894, 8.358023E-4, NaN, NaN, NaN, 0.0396753, "- N/A -   "
0.45, 28.54329, 8.524628E-4, NaN, NaN, NaN, 0.0384545, "- N/A -   "
0.46, 29.0151, 0.0008719, NaN, NaN, NaN, 0.0384545, "- N/A -   "
0.47, 29.251, 8.885606E-4, NaN, NaN, NaN, 0.0372337, "- N/A -   "
0.48, 29.6048, 9.052211E-4, NaN, NaN, NaN, 0.0372337, "- N/A -   "
0.49, 29.9587, 9.218816E-4, NaN, NaN, NaN, 0.0372337, "- N/A -   "
0.5, 30.1946, 9.385421E-4, NaN, NaN, NaN, 0.0384545, "- N/A -   "
0.51, 30.6663, 9.552026E-4, NaN, NaN, NaN, 0.0372337, "- N/A -   "
0.55, 32.08171, 0.00103017, NaN, NaN, NaN, 0.0335714, "- N/A -   "
0.59, 33.49708, 0.00109959, NaN, NaN, NaN, 0.0323506, "- N/A -   "
0.63, 34.9125, 0.00117179, NaN, NaN, NaN, 0.03112983, "- N/A -   "
0.67, 36.2099, 0.00123565, NaN, NaN, NaN, 0.03112983, "- N/A -   "
0.71, 37.5073, 0.001296743, NaN, NaN, NaN, 0.0347922, "- N/A -   "
0.75, 38.5688, 0.00135228, NaN, NaN, NaN, 0.0384545, "- N/A -   "
0.79, 39.7483, 0.00141337, NaN, NaN, NaN, 0.04089605, "- N/A -   "
0.83, 41.04572, 0.001477232, NaN, NaN, NaN, 0.04211683, "- N/A -   "
0.87, 42.579, 0.0015411, NaN, NaN, NaN, 0.0433376, "- N/A -   "
0.91, 43.9944, 0.00160774, NaN, NaN, NaN, 0.0433376, "- N/A -   "
0.95, 45.40978, 0.0016716, NaN, NaN, NaN, 0.0445584, "- N/A -   "
0.99, 46.9431, 0.0017438, NaN, NaN, NaN, 0.0433376, "- N/A -   "
1.03, 48.59436, 0.001816, NaN, NaN, NaN, 0.0396753, "- N/A -   "
1.07, 50.2456, 0.00189374, NaN, NaN, NaN, 0.03601294, "- N/A -   "
1.11, 52.01483, 0.00197149, NaN, NaN, NaN, 0.03112983, "- N/A -   "
1.15, 53.6661, 0.00204369, NaN, NaN, NaN, 0.0286883, "- N/A -   "
1.19, 55.3174, 0.00211033, NaN, NaN, NaN, 0.0274675, "- N/A -   "
1.23, 56.6148, 0.0021742, NaN, NaN, NaN, 0.0286883, "- N/A -   "
1.27, 57.79426, 0.00222973, NaN, NaN, NaN, 0.0335714, "- N/A -   "
1.31, 59.3276, 0.002293597, NaN, NaN, NaN, 0.0347922, "- N/A -   "
1.35, 60.8609, 0.00235746, NaN, NaN, NaN, 0.03601294, "- N/A -   "
1.39, 62.3942, 0.002426881, NaN, NaN, NaN, 0.0347922, "- N/A -   "
1.43, 64.04548, 0.0024963, NaN, NaN, NaN, 0.0347922, "- N/A -   "
1.47, 65.4608, 0.00255461, NaN, NaN, NaN, 0.0372337, "- N/A -   "
1.51, 66.64032, 0.00261015, NaN, NaN, NaN, 0.04211683, "- N/A -   "
1.55, 68.17364, 0.00267401, NaN, NaN, NaN, 0.0433376, "- N/A -   "
1.59, 69.8249, 0.00274065, NaN, NaN, NaN, 0.0445584, "- N/A -   "
1.63, 71.24027, 0.00280452, NaN, NaN, NaN, 0.0445584, "- N/A -   "
1.67, 73.2454, 0.00288505, NaN, NaN, NaN, 0.0384545, "- N/A -   "
1.71, 74.8966, 0.002957241, NaN, NaN, NaN, 0.03601294, "- N/A -   "
1.75, 76.6659, 0.00302944, NaN, NaN, NaN, 0.0335714, "- N/A -   "
1.79, 78.31712, 0.003098855, NaN, NaN, NaN, 0.0335714, "- N/A -   "
1.83, 79.85043, 0.003165497, NaN, NaN, NaN, 0.0335714, "- N/A -   "
1.87, 81.38376, 0.00322659, NaN, NaN, NaN, 0.0347922, "- N/A -   "
1.91, 82.79912, 0.00329045, NaN, NaN, NaN, 0.0372337, "- N/A -   "
1.95, 84.33244, 0.00335154, NaN, NaN, NaN, 0.0384545, "- N/A -   "
1.99, 86.1017, 0.003423735, NaN, NaN, NaN, 0.03601294, "- N/A -   "
2.03, 87.9888, 0.00350148, NaN, NaN, NaN, 0.0323506, "- N/A -   "
2.07, 89.52213, 0.00356257, NaN, NaN, NaN, 0.0335714, "- N/A -   "
2.11, 91.05545, 0.00362366, NaN, NaN, NaN, 0.03601294, "- N/A -   "
2.15, 92.47082, 0.00368475, NaN, NaN, NaN, 0.0396753, "- N/A -   "
2.19, 93.8862, 0.00374584, NaN, NaN, NaN, 0.04211683, "- N/A -   "
2.23, 95.6554, 0.003815257, NaN, NaN, NaN, 0.04089605, "- N/A -   "
2.27, 97.54256, 0.00388745, NaN, NaN, NaN, 0.0384545, "- N/A -   "
2.31, 99.1938, 0.003948541, NaN, NaN, NaN, 0.0396753, "- N/A -   "
2.35, 100.845, 0.00402074, NaN, NaN, NaN, 0.0372337, "- N/A -   "
2.39, 102.6143, 0.00409016, NaN, NaN, NaN, 0.03601294, "- N/A -   "
2.43, 104.266, 0.00415957, NaN, NaN, NaN, 0.0347922, "- N/A -   "
2.47, 105.917, 0.00422344, NaN, NaN, NaN, 0.0372337, "- N/A -   "
2.51, 107.3322, 0.004284528, NaN, NaN, NaN, 0.0384545, "- N/A -   "
2.55, 109.101, 0.00435672, NaN, NaN, NaN, 0.03601294, "- N/A -   "
2.59, 111.107, 0.00442892, NaN, NaN, NaN, 0.0335714, "- N/A -   "
2.63, 112.758, 0.004495561, NaN, NaN, NaN, 0.0335714, "- N/A -   "
2.67, 114.409, 0.00455943, NaN, NaN, NaN, 0.0347922, "- N/A -   "
2.71, 116.178, 0.004631622, NaN, NaN, NaN, 0.0323506, "- N/A -   "
2.75, 117.83, 0.004698264, NaN, NaN, NaN, 0.0323506, "- N/A -   "
2.79, 119.599, 0.004764906, NaN, NaN, NaN, 0.0323506, "- N/A -   "
2.83, 121.132, 0.004828771, NaN, NaN, NaN, 0.0335714, "- N/A -   "
2.87, 122.665, 0.00488986, NaN, NaN, NaN, 0.0372337, "- N/A -   "
2.91, 124.199, 0.00495095, NaN, NaN, NaN, 0.0384545, "- N/A -   "
2.95, 125.85, 0.005012037, NaN, NaN, NaN, 0.04089605, "- N/A -   "
2.99, 127.383, 0.00507313, NaN, NaN, NaN, 0.0433376, "- N/A -   "
3.03, 129.152, 0.00513977, NaN, NaN, NaN, 0.0433376, "- N/A -   "
3.07, 130.922, 0.00520641, NaN, NaN, NaN, 0.0433376, "- N/A -   "
3.11, 132.9268, 0.00528138, NaN, NaN, NaN, 0.04089605, "- N/A -   "
3.15, 134.814, 0.005356354, NaN, NaN, NaN, 0.03601294, "- N/A -   "
3.19, 136.701, 0.00542855, NaN, NaN, NaN, 0.0335714, "- N/A -   "
3.23, 138.352, 0.00549242, NaN, NaN, NaN, 0.0347922, "- N/A -   "
3.27, 139.8857, 0.00555628, NaN, NaN, NaN, 0.0372337, "- N/A -   "
3.31, 141.891, 0.005628476, NaN, NaN, NaN, 0.0347922, "- N/A -   "
3.35, 143.66, 0.00569512, NaN, NaN, NaN, 0.0335714, "- N/A -   "
3.39, 145.547, 0.00577009, NaN, NaN, NaN, 0.0299091, "- N/A -   "
3.43, 147.316, 0.005839509, NaN, NaN, NaN, 0.0299091, "- N/A -   "
3.47, 148.8497, 0.005897821, NaN, NaN, NaN, 0.0323506, "- N/A -   "
3.51, 150.383, 0.005956133, NaN, NaN, NaN, 0.0372337, "- N/A -   "
3.55, 151.916, 0.00601167, NaN, NaN, NaN, 0.04089605, "- N/A -   "
3.59, 153.332, 0.00606998, NaN, NaN, NaN, 0.0445584, "- N/A -   "
3.63, 154.983, 0.006133845, NaN, NaN, NaN, 0.04699994, "- N/A -   "
3.67, 156.87, 0.006200487, NaN, NaN, NaN, 0.04699994, "- N/A -   "
3.71, 158.875, 0.006278236, NaN, NaN, NaN, 0.0433376, "- N/A -   "
3.75, 160.7624, 0.006350431, NaN, NaN, NaN, 0.0396753, "- N/A -   "
3.79, 162.768, 0.006425404, NaN, NaN, NaN, 0.0372337, "- N/A -   "
3.83, 164.537, 0.00649482, NaN, NaN, NaN, 0.03601294, "- N/A -   "
3.87, 166.188, 0.006561464, NaN, NaN, NaN, 0.03601294, "- N/A -   "
3.91, 168.193, 0.00663366, NaN, NaN, NaN, 0.0335714, "- N/A -   "
3.95, 170.1982, 0.006705856, NaN, NaN, NaN, 0.0299091, "- N/A -   "
3.99, 171.9674, 0.006772498, NaN, NaN, NaN, 0.0299091, "- N/A -   "
4.03, 173.619, 0.006836363, NaN, NaN, NaN, 0.03112983, "- N/A -   "
4.07, 175.27, 0.00690023, NaN, NaN, NaN, 0.0323506, "- N/A -   "
4.11, 177.039, 0.00696409, NaN, NaN, NaN, 0.0335714, "- N/A -   "
4.15, 178.455, 0.00702518, NaN, NaN, NaN, 0.0372337, "- N/A -   "
4.19, 180.106, 0.00708072, NaN, NaN, NaN, 0.04089605, "- N/A -   "
4.23, 181.521, 0.00713903, NaN, NaN, NaN, 0.0445584, "- N/A -   "
4.27, 183.172, 0.00720289, NaN, NaN, NaN, 0.04699994, "- N/A -   "
4.31, 184.942, 0.00726676, NaN, NaN, NaN, 0.04699994, "- N/A -   "
4.35, 186.829, 0.007336179, NaN, NaN, NaN, 0.04577916, "- N/A -   "
4.39, 188.716, 0.0074056, NaN, NaN, NaN, 0.0445584, "- N/A -   "
4.43, 190.721, 0.007477793, NaN, NaN, NaN, 0.04211683, "- N/A -   "
4.47, 192.608, 0.007552765, NaN, NaN, NaN, 0.0396753, "- N/A -   "
4.51, 194.967, 0.00763329, NaN, NaN, NaN, 0.0323506, "- N/A -   "
4.55, 196.736, 0.007708263, NaN, NaN, NaN, 0.0299091, "- N/A -   "
4.59, 198.624, 0.00777491, NaN, NaN, NaN, 0.0286883, "- N/A -   "
4.63, 200.157, 0.007835994, NaN, NaN, NaN, 0.03112983, "- N/A -   "
4.67, 201.808, 0.007899859, NaN, NaN, NaN, 0.0323506, "- N/A -   "
4.71, 203.341, 0.007958171, NaN, NaN, NaN, 0.03601294, "- N/A -   "
4.75, 204.9927, 0.008024813, NaN, NaN, NaN, 0.0372337, "- N/A -   "
4.79, 206.88, 0.008085901, NaN, NaN, NaN, 0.0384545, "- N/A -   "
4.83, 208.767, 0.00815532, NaN, NaN, NaN, 0.0372337, "- N/A -   "
4.87, 210.418, 0.008224739, NaN, NaN, NaN, 0.0372337, "- N/A -   "
4.91, 211.9516, 0.008280274, NaN, NaN, NaN, 0.04089605, "- N/A -   "
4.95, 213.485, 0.008341363, NaN, NaN, NaN, 0.0433376, "- N/A -   "
4.99, 215.254, 0.008408004, NaN, NaN, NaN, 0.0445584, "- N/A -   "
5.03, 217.023, 0.00847187, NaN, NaN, NaN, 0.04577916, "- N/A -   "
5.07, 219.028, 0.008541289, NaN, NaN, NaN, 0.0433376, "- N/A -   "
5.11, 221.152, 0.008621815, NaN, NaN, NaN, 0.0372337, "- N/A -   "
5.15, 223.039, 0.008696787, NaN, NaN, NaN, 0.0335714, "- N/A -   "
5.19, 225.044, 0.008771759, NaN, NaN, NaN, 0.0299091, "- N/A -   "
5.23, 226.931, 0.008841177, NaN, NaN, NaN, 0.0286883, "- N/A -   "
5.27, 228.464, 0.008902267, NaN, NaN, NaN, 0.0323506, "- N/A -   "
5.31, 230.116, 0.008966132, NaN, NaN, NaN, 0.0335714, "- N/A -   "
5.35, 231.885, 0.009029997, NaN, NaN, NaN, 0.0335714, "- N/A -   "
5.39, 233.654, 0.009102193, NaN, NaN, NaN, 0.0323506, "- N/A -   "
5.43, 235.5411, 0.009166058, NaN, NaN, NaN, 0.0323506, "- N/A -   "
5.47, 236.956, 0.00922437, NaN, NaN, NaN, 0.03601294, "- N/A -   "
5.51, 238.726, 0.009291012, NaN, NaN, NaN, 0.03601294, "- N/A -   "
5.55, 240.495, 0.009354877, NaN, NaN, NaN, 0.0372337, "- N/A -   "
5.59, 241.91, 0.009413189, NaN, NaN, NaN, 0.04089605, "- N/A -   "
5.63, 243.678, 0.009479831, NaN, NaN, NaN, 0.04211683, "- N/A -   "
5.67, 245.328, 0.009543696, NaN, NaN, NaN, 0.0433376, "- N/A -   "
5.71, 247.331, 0.009613114, NaN, NaN, NaN, 0.04211683, "- N/A -   "
5.75, 248.98, 0.009679758, NaN, NaN, NaN, 0.04089605, "- N/A -   "
5.79, 250.983, 0.00975473, NaN, NaN, NaN, 0.0372337, "- N/A -   "
5.83, 252.751, 0.009826925, NaN, NaN, NaN, 0.03601294, "- N/A -   "
5.87, 254.518, 0.009893567, NaN, NaN, NaN, 0.03601294, "- N/A -   "
5.91, 256.286, 0.009957431, NaN, NaN, NaN, 0.03601294, "- N/A -   "
5.95, 258.053, 0.0100269, NaN, NaN, NaN, 0.0347922, "- N/A -   "
5.99, 259.938, 0.010099, NaN, NaN, NaN, 0.0335714, "- N/A -   "
6.03, 261.706, 0.0101629, NaN, NaN, NaN, 0.0335714, "- N/A -   "
6.07, 263.473, 0.0102296, NaN, NaN, NaN, 0.0335714, "- N/A -   "
6.11, 265.0048, 0.0102962, NaN, NaN, NaN, 0.0347922, "- N/A -   "
6.15, 266.654, 0.0103573, NaN, NaN, NaN, 0.03601294, "- N/A -   "
6.17, 267.597, 0.0103934, NaN, NaN, NaN, 0.03601294, "- N/A -   "
6.18, 267.95, 0.01041, NaN, NaN, NaN, 0.0347922, "- N/A -   "
6.19, 268.54, 0.0104295, NaN, NaN, NaN, 0.0335714, "- N/A -   "
6.2, 269.011, 0.01044614, NaN, NaN, NaN, 0.0335714, "- N/A -   "
6.21, 269.482, 0.0104656, NaN, NaN, NaN, 0.0335714, "- N/A -   "
6.22, 269.9535, 0.010485, NaN, NaN, NaN, 0.0323506, "- N/A -   "
6.23, 270.425, 0.0105017, NaN, NaN, NaN, 0.0323506, "- N/A -   "
6.24, 270.778, 0.01051556, NaN, NaN, NaN, 0.0323506, "- N/A -   "
6.25, 271.132, 0.01053222, NaN, NaN, NaN, 0.0323506, "- N/A -   "
6.26, 271.603, 0.0105461, NaN, NaN, NaN, 0.0335714, "- N/A -   "
6.27, 271.9565, 0.01056, NaN, NaN, NaN, 0.0347922, "- N/A -   "
6.28, 272.31, 0.0105739, NaN, NaN, NaN, 0.03601294, "- N/A -   "
6.29, 272.663, 0.0105878, NaN, NaN, NaN, 0.0372337, "- N/A -   "
6.3, 273.017, 0.0106044, NaN, NaN, NaN, 0.0372337, "- N/A -   "
6.31, 273.488, 0.0106183, NaN, NaN, NaN, 0.0384545, "- N/A -   "
6.32, 273.842, 0.0106322, NaN, NaN, NaN, 0.0396753, "- N/A -   "
6.33, 274.195, 0.0106488, NaN, NaN, NaN, 0.0396753, "- N/A -   "
6.34, 274.667, 0.0106655, NaN, NaN, NaN, 0.0396753, "- N/A -   "
6.35, 275.02, 0.0106822, NaN, NaN, NaN, 0.0396753, "- N/A -   "
6.36, 275.4913, 0.0106988, NaN, NaN, NaN, 0.04089605, "- N/A -   "
6.37, 275.963, 0.0107127, NaN, NaN, NaN, 0.04089605, "- N/A -   "
6.38, 276.3161, 0.01072937, NaN, NaN, NaN, 0.04089605, "- N/A -   "
6.39, 276.67, 0.01074603, NaN, NaN, NaN, 0.04211683, "- N/A -   "
6.4, 277.023, 0.0107599, NaN, NaN, NaN, 0.04211683, "- N/A -   "
6.41, 277.494, 0.0107766, NaN, NaN, NaN, 0.0433376, "- N/A -   "
6.42, 277.8478, 0.0107905, NaN, NaN, NaN, 0.0433376, "- N/A -   "
6.43, 278.319, 0.0108043, NaN, NaN, NaN, 0.0445584, "- N/A -   "
6.44, 278.6726, 0.010821, NaN, NaN, NaN, 0.0445584, "- N/A -   "
6.45, 279.262, 0.0108377, NaN, NaN, NaN, 0.0445584, "- N/A -   "
6.46, 279.733, 0.0108543, NaN, NaN, NaN, 0.0445584, "- N/A -   "
6.47, 279.9687, 0.010871, NaN, NaN, NaN, 0.0445584, "- N/A -   "
6.48, 280.44, 0.01089042, NaN, NaN, NaN, 0.0445584, "- N/A -   "
6.49, 280.911, 0.0109071, NaN, NaN, NaN, 0.0433376, "- N/A -   "
6.5, 281.5, 0.0109265, NaN, NaN, NaN, 0.04211683, "- N/A -   "
6.51, 282.09, 0.01094318, NaN, NaN, NaN, 0.04211683, "- N/A -   "
6.52, 282.443, 0.0109654, NaN, NaN, NaN, 0.0396753, "- N/A -   "
6.53, 283.15, 0.0109848, NaN, NaN, NaN, 0.0384545, "- N/A -   "
6.54, 283.6213, 0.0110043, NaN, NaN, NaN, 0.0372337, "- N/A -   "
6.55, 284.093, 0.0110265, NaN, NaN, NaN, 0.03601294, "- N/A -   "
6.56, 284.682, 0.0110459, NaN, NaN, NaN, 0.0335714, "- N/A -   "
6.57, 285.153, 0.0110654, NaN, NaN, NaN, 0.0323506, "- N/A -   "
6.58, 285.7422, 0.0110848, NaN, NaN, NaN, 0.0323506, "- N/A -   "
6.59, 286.096, 0.0111015, NaN, NaN, NaN, 0.03112983, "- N/A -   "
6.6, 286.567, 0.0111181, NaN, NaN, NaN, 0.03112983, "- N/A -   "
6.61, 287.038, 0.0111348, NaN, NaN, NaN, 0.03112983, "- N/A -   "
6.62, 287.392, 0.0111514, NaN, NaN, NaN, 0.03112983, "- N/A -   "
6.63, 287.863, 0.0111681, NaN, NaN, NaN, 0.03112983, "- N/A -   "
6.64, 288.217, 0.0111848, NaN, NaN, NaN, 0.0323506, "- N/A -   "
6.65, 288.57, 0.0111986, NaN, NaN, NaN, 0.0323506, "- N/A -   "
6.66, 288.9235, 0.0112153, NaN, NaN, NaN, 0.0323506, "- N/A -   "
6.67, 289.5126, 0.011232, NaN, NaN, NaN, 0.0323506, "- N/A -   "
6.68, 289.8661, 0.0112486, NaN, NaN, NaN, 0.0335714, "- N/A -   "
6.69, 290.22, 0.0112653, NaN, NaN, NaN, 0.0335714, "- N/A -   "
6.7, 290.573, 0.0112819, NaN, NaN, NaN, 0.0323506, "- N/A -   "
6.71, 291.28, 0.0112986, NaN, NaN, NaN, 0.0323506, "- N/A -   "
6.72, 291.633, 0.01131804, NaN, NaN, NaN, 0.03112983, "- N/A -   "
6.73, 291.987, 0.0113347, NaN, NaN, NaN, 0.03112983, "- N/A -   "
6.74, 292.458, 0.0113514, NaN, NaN, NaN, 0.03112983, "- N/A -   "
6.75, 292.93, 0.011368, NaN, NaN, NaN, 0.03112983, "- N/A -   "
6.76, 293.401, 0.0113875, NaN, NaN, NaN, 0.0299091, "- N/A -   "
6.77, 293.99, 0.0114069, NaN, NaN, NaN, 0.0286883, "- N/A -   "
6.78, 294.4613, 0.0114236, NaN, NaN, NaN, 0.0286883, "- N/A -   "
6.79, 294.9326, 0.0114402, NaN, NaN, NaN, 0.0286883, "- N/A -   "
6.8, 295.2861, 0.0114569, NaN, NaN, NaN, 0.0286883, "- N/A -   "
6.81, 295.7574, 0.0114763, NaN, NaN, NaN, 0.0286883, "- N/A -   "
6.82, 296.111, 0.0114902, NaN, NaN, NaN, 0.0286883, "- N/A -   "
[...]
24.46, 1064.99, 0.0408932, NaN, NaN, NaN, 0.0274675, "- N/A -   "
24.61, 1071.31, 0.04112925, NaN, NaN, NaN, 0.0347922, "- N/A -   "
24.76, 1077.75, 0.0413569, NaN, NaN, NaN, 0.0433376, "- N/A -   "
24.91, 1084.91, 0.0416124, NaN, NaN, NaN, 0.04089605, "- N/A -   "
25.06, 1093.02, 0.0418956, NaN, NaN, NaN, 0.0274675, "- N/A -   "
25.21, 1099.34, 0.0421261, NaN, NaN, NaN, 0.0347922, "- N/A -   "
25.36, 1106.26, 0.0423677, NaN, NaN, NaN, 0.0384545, "- N/A -   "
25.51, 1112.69, 0.0426037, NaN, NaN, NaN, 0.04577916, "- N/A -   "
25.66, 1120.57, 0.0428842, NaN, NaN, NaN, 0.0323506, "- N/A -   "
25.81, 1127.84, 0.0431396, NaN, NaN, NaN, 0.0286883, "- N/A -   "
25.96, 1134.28, 0.0433756, NaN, NaN, NaN, 0.03601294, "- N/A -   "
26.11, 1140.72, 0.0436089, NaN, NaN, NaN, 0.04211683, "- N/A -   "
26.26, 1147.99, 0.0438671, NaN, NaN, NaN, 0.04089605, "- N/A -   "
26.41, 1155.51, 0.04412814, NaN, NaN, NaN, 0.0347922, "- N/A -   "
26.56, 1162.065, 0.04436972, NaN, NaN, NaN, 0.0396753, "- N/A -   "
26.71, 1169.46, 0.0446307, NaN, NaN, NaN, 0.0347922, "- N/A -   "
26.86, 1175.78, 0.0448584, NaN, NaN, NaN, 0.0433376, "- N/A -   "
27.01, 1183.411, 0.045125, NaN, NaN, NaN, 0.03601294, "- N/A -   "
27.16, 1190.69, 0.0453832, NaN, NaN, NaN, 0.0323506, "- N/A -   "
27.31, 1197.96, 0.04563869, NaN, NaN, NaN, 0.0299091, "- N/A -   "
27.46, 1203.92, 0.0458608, NaN, NaN, NaN, 0.04211683, "- N/A -   "
27.61, 1210.96, 0.0461107, NaN, NaN, NaN, 0.04211683, "- N/A -   "
27.76, 1218.47, 0.0463745, NaN, NaN, NaN, 0.03601294, "- N/A -   "
27.91, 1225.75, 0.04663555, NaN, NaN, NaN, 0.0323506, "- N/A -   "
28.06, 1232.185, 0.0468716, NaN, NaN, NaN, 0.0384545, "- N/A -   "
28.21, 1238.744, 0.0471076, NaN, NaN, NaN, 0.0433376, "- N/A -   "
28.36, 1246.26, 0.0473714, NaN, NaN, NaN, 0.0372337, "- N/A -   "
28.51, 1253.89, 0.0476435, NaN, NaN, NaN, 0.0274675, "- N/A -   "
28.66, 1260.45, 0.04787676, NaN, NaN, NaN, 0.03601294, "- N/A -   "
28.81, 1267.01, 0.04811556, NaN, NaN, NaN, 0.0396753, "- N/A -   "
28.96, 1274.16, 0.0483655, NaN, NaN, NaN, 0.04089605, "- N/A -   "
29.11, 1281.67, 0.048632, NaN, NaN, NaN, 0.0323506, "- N/A -   "
29.26, 1288.59, 0.0488792, NaN, NaN, NaN, 0.0347922, "- N/A -   "
29.41, 1295.39, 0.04912352, NaN, NaN, NaN, 0.03601294, "- N/A -   "
29.56, 1302.31, 0.0493679, NaN, NaN, NaN, 0.0384545, "- N/A -   "
29.71, 1309.34, 0.0496206, NaN, NaN, NaN, 0.0384545, "- N/A -   "
29.86, 1316.73, 0.0498816, NaN, NaN, NaN, 0.0323506, "- N/A -   "
30.01, 1323.89, 0.05013426, NaN, NaN, NaN, 0.03112983, "- N/A -   "
30.16, 1330.33, 0.05037028, NaN, NaN, NaN, 0.0372337, "- N/A -   "
30.31, 1336.77, 0.0506035, NaN, NaN, NaN, 0.0445584, "- N/A -   "
30.46, 1344.759, 0.0508784, NaN, NaN, NaN, 0.0335714, "- N/A -   "
30.61, 1351.56, 0.05112556, NaN, NaN, NaN, 0.0347922, "- N/A -   "
30.76, 1358.71, 0.0513838, NaN, NaN, NaN, 0.0323506, "- N/A -   "
30.91, 1365.03, 0.0516059, NaN, NaN, NaN, 0.0445584, "- N/A -   "
31.06, 1372.43, 0.0518697, NaN, NaN, NaN, 0.0396753, "- N/A -   "
31.21, 1379.819, 0.05213352, NaN, NaN, NaN, 0.0335714, "- N/A -   "
31.36, 1387.45, 0.0524001, NaN, NaN, NaN, 0.0250259, "- N/A -   "
31.51, 1393.056, 0.05261112, NaN, NaN, NaN, 0.0433376, "- N/A -   "
31.66, 1399.85, 0.0528499, NaN, NaN, NaN, 0.04699994, "- N/A -   "
31.81, 1407.96, 0.0531304, NaN, NaN, NaN, 0.0347922, "- N/A -   "
31.96, 1414.88, 0.0533858, NaN, NaN, NaN, 0.03112983, "- N/A -   "
32.11, 1421.68, 0.0536219, NaN, NaN, NaN, 0.0372337, "- N/A -   "
32.26, 1428.35, 0.0538551, NaN, NaN, NaN, 0.0445584, "- N/A -   "
32.41, 1435.99, 0.0541272, NaN, NaN, NaN, 0.0347922, "- N/A -   "
32.56, 1443.26, 0.0543827, NaN, NaN, NaN, 0.0323506, "- N/A -   "
32.71, 1450.42, 0.0546381, NaN, NaN, NaN, 0.0299091, "- N/A -   "
32.86, 1456.86, 0.0548714, NaN, NaN, NaN, 0.0384545, "- N/A -   "
33.01, 1463.65, 0.05511575, NaN, NaN, NaN, 0.0396753, "- N/A -   "
33.16, 1470.81, 0.0553684, NaN, NaN, NaN, 0.0396753, "- N/A -   "
33.31, 1477.96, 0.0556267, NaN, NaN, NaN, 0.0347922, "- N/A -   "
33.46, 1484.88, 0.0558738, NaN, NaN, NaN, 0.03601294, "- N/A -   "
33.61, 1491.68, 0.0561182, NaN, NaN, NaN, 0.0384545, "- N/A -   "
33.76, 1498.47, 0.05636251, NaN, NaN, NaN, 0.04211683, "- N/A -   "
33.91, 1506.11, 0.0566346, NaN, NaN, NaN, 0.0323506, "- N/A -   "
34.06, 1513.38, 0.0568901, NaN, NaN, NaN, 0.0286883, "- N/A -   "
34.21, 1520.18, 0.0571317, NaN, NaN, NaN, 0.0323506, "- N/A -   "
34.36, 1526.14, 0.0573455, NaN, NaN, NaN, 0.0482207, "- N/A -   "
34.51, 1533.89, 0.05762038, NaN, NaN, NaN, 0.0372337, "- N/A -   "
34.66, 1541.41, 0.0578897, NaN, NaN, NaN, 0.0286883, "- N/A -   "
34.81, 1548.2, 0.0581341, NaN, NaN, NaN, 0.03112983, "- N/A -   "
34.96, 1554.05, 0.0583534, NaN, NaN, NaN, 0.0445584, "- N/A -   "
35.11, 1561.32, 0.0586172, NaN, NaN, NaN, 0.0396753, "- N/A -   "
35.26, 1569.19, 0.05889491, NaN, NaN, NaN, 0.0262467, "- N/A -   "
35.41, 1575.87, 0.05913371, NaN, NaN, NaN, 0.0323506, "- N/A -   "
35.56, 1582.31, 0.05937251, NaN, NaN, NaN, 0.0384545, "- N/A -   "
35.71, 1588.75, 0.059603, NaN, NaN, NaN, 0.04577916, "- N/A -   "
35.86, 1596.74, 0.0598807, NaN, NaN, NaN, 0.0347922, "- N/A -   "
36.01, 1603.54, 0.0601278, NaN, NaN, NaN, 0.0347922, "- N/A -   "
36.16, 1610.57, 0.06038047, NaN, NaN, NaN, 0.0335714, "- N/A -   "
36.31, 1616.77, 0.0606082, NaN, NaN, NaN, 0.0433376, "- N/A -   "
36.46, 1624.047, 0.0608664, NaN, NaN, NaN, 0.0396753, "- N/A -   "
36.61, 1631.2, 0.0611219, NaN, NaN, NaN, 0.0372337, "- N/A -   "
36.76, 1638.48, 0.0613857, NaN, NaN, NaN, 0.03112983, "- N/A -   "
36.91, 1645.39, 0.06163279, NaN, NaN, NaN, 0.0323506, "- N/A -   "
37.06, 1651.71, 0.06186048, NaN, NaN, NaN, 0.04211683, "- N/A -   "
37.21, 1658.511, 0.0621048, NaN, NaN, NaN, 0.04577916, "- N/A -   "
37.36, 1666.26, 0.0623825, NaN, NaN, NaN, 0.0335714, "- N/A -   "
37.51, 1673.54, 0.06263797, NaN, NaN, NaN, 0.0299091, "- N/A -   "
37.66, 1679.62, 0.06286844, NaN, NaN, NaN, 0.0384545, "- N/A -   "
37.81, 1686.06, 0.06310169, NaN, NaN, NaN, 0.04577916, "- N/A -   "
37.96, 1693.81, 0.06337936, NaN, NaN, NaN, 0.0347922, "- N/A -   "
38.11, 1701.203, 0.06364315, NaN, NaN, NaN, 0.0274675, "- N/A -   "
38.26, 1707.76, 0.063882, NaN, NaN, NaN, 0.0335714, "- N/A -   "
38.41, 1713.84, 0.0641096, NaN, NaN, NaN, 0.0433376, "- N/A -   "
38.56, 1720.88, 0.06435955, NaN, NaN, NaN, 0.0433376, "- N/A -   "
38.71, 1728.75, 0.06464001, NaN, NaN, NaN, 0.0286883, "- N/A -   "
38.86, 1735.07, 0.06487048, NaN, NaN, NaN, 0.0372337, "- N/A -   "
39.01, 1741.99, 0.06512316, NaN, NaN, NaN, 0.03601294, "- N/A -   "
39.16, 1748.19, 0.06535363, NaN, NaN, NaN, 0.0445584, "- N/A -   "
39.31, 1756.3, 0.06564242, NaN, NaN, NaN, 0.0286883, "- N/A -   "
39.46, 1762.62, 0.0658701, NaN, NaN, NaN, 0.0372337, "- N/A -   "
39.61, 1770.01, 0.06613668, NaN, NaN, NaN, 0.0299091, "- N/A -   "
39.76, 1775.62, 0.06635604, NaN, NaN, NaN, 0.0433376, "- N/A -   "
39.91, 1782.77, 0.06660873, NaN, NaN, NaN, 0.0433376, "- N/A -   "
40.06, 1790.165, 0.0668781, NaN, NaN, NaN, 0.0347922, "- N/A -   "
40.21, 1797.2, 0.06713075, NaN, NaN, NaN, 0.0335714, "- N/A -   "
40.36, 1804, 0.06738344, NaN, NaN, NaN, 0.0335714, "- N/A -   "
40.51, 1809.96, 0.06760836, NaN, NaN, NaN, 0.0433376, "- N/A -   "
40.66, 1817.83, 0.06788603, NaN, NaN, NaN, 0.03112983, "- N/A -   "
40.81, 1824.27, 0.06812761, NaN, NaN, NaN, 0.0347922, "- N/A -   "
40.96, 1831.307, 0.06838585, NaN, NaN, NaN, 0.0323506, "- N/A -   "
41.11, 1837.27, 0.068608, NaN, NaN, NaN, 0.0433376, "- N/A -   "
41.26, 1844.067, 0.06885789, NaN, NaN, NaN, 0.0433376, "- N/A -   "
41.41, 1851.46, 0.06913002, NaN, NaN, NaN, 0.0347922, "- N/A -   "
41.56, 1858.62, 0.0693938, NaN, NaN, NaN, 0.0274675, "- N/A -   "
41.71, 1864.58, 0.0696187, NaN, NaN, NaN, 0.0384545, "- N/A -   "
41.86, 1870.9, 0.0698603, NaN, NaN, NaN, 0.04211683, "- N/A -   "
42.01, 1878.173, 0.07012965, NaN, NaN, NaN, 0.0335714, "- N/A -   "
42.16, 1885.21, 0.0703851, NaN, NaN, NaN, 0.03112983, "- N/A -   "
42.31, 1891.41, 0.07062113, NaN, NaN, NaN, 0.0372337, "- N/A -   "
42.46, 1897.85, 0.07086549, NaN, NaN, NaN, 0.04089605, "- N/A -   "
42.61, 1904.53, 0.07111262, NaN, NaN, NaN, 0.04089605, "- N/A -   "
42.76, 1911.8, 0.071382, NaN, NaN, NaN, 0.0335714, "- N/A -   "
42.91, 1918.361, 0.07162631, NaN, NaN, NaN, 0.0347922, "- N/A -   "
43.06, 1924.92, 0.07187345, NaN, NaN, NaN, 0.03601294, "- N/A -   "
43.21, 1931.36, 0.0721178, NaN, NaN, NaN, 0.0384545, "- N/A -   "
43.36, 1938.276, 0.07237326, NaN, NaN, NaN, 0.0372337, "- N/A -   "
43.51, 1945.07, 0.0726315, NaN, NaN, NaN, 0.0335714, "- N/A -   "
43.66, 1951.99, 0.07288418, NaN, NaN, NaN, 0.03112983, "- N/A -   "
43.78, 1956.88, 0.07307578, NaN, NaN, NaN, 0.03601294, "- N/A -   "