File: 2_Tensile_Data/Hamel_ForceTest_Bolt8_Test4.csv
Time, Load (lb), Position (in), AxialStrain (in), TransverseStrain (in), Auxiliary (), Control Out (V), Stress (psi)
0.0, 1.29742, 0.0, NaN, NaN, NaN, 0.09949338, "- N/A -   "
0.01, 1.76921, 3.3321e-05, NaN, NaN, NaN, 0.104376, "- N/A -   "
0.02, 2.35895, 6.94188E-5, NaN, NaN, NaN, 0.095831, "- N/A -   "
0.03, 2.712792, 0.00010274, NaN, NaN, NaN, 0.08850638, "- N/A -   "
0.04, 3.30253, 0.000133284, NaN, NaN, NaN, 0.08240249, "- N/A -   "
0.05, 3.53842, 0.000163828, NaN, NaN, NaN, 0.0762986, "- N/A -   "
0.06, 4.010214, 0.000188819, NaN, NaN, NaN, 0.07263627, "- N/A -   "
0.07, 4.482, 0.000216587, NaN, NaN, NaN, 0.06775316, "- N/A -   "
0.08, 4.59995, 0.000238801, NaN, NaN, NaN, 0.0653116, "- N/A -   "
0.09, 5.071741, 0.000261015, NaN, NaN, NaN, 0.06287005, "- N/A -   "
0.1, 5.425584, 0.000280452, NaN, NaN, NaN, 0.06164927, "- N/A -   "
0.11, 5.66148, 2.998892E-4, NaN, NaN, NaN, 0.0604285, "- N/A -   "
0.12, 5.897373, 0.000319326, NaN, NaN, NaN, 0.0592077, "- N/A -   "
0.13, 6.251216, 0.000338764, NaN, NaN, NaN, 0.0579869, "- N/A -   "
0.14, 6.487111, 0.000358201, NaN, NaN, NaN, 0.05676616, "- N/A -   "
0.15, 6.60506, 0.000372085, NaN, NaN, NaN, 0.0579869, "- N/A -   "
0.16, 6.84095, 0.000388745, NaN, NaN, NaN, 0.0579869, "- N/A -   "
0.17, 7.07685, 0.000405406, NaN, NaN, NaN, 0.0579869, "- N/A -   "
0.18, 7.312743, 0.000422066, NaN, NaN, NaN, 0.0579869, "- N/A -   "
0.19, 7.548638, 4.387268E-4, NaN, NaN, NaN, 0.0579869, "- N/A -   "
0.2, 7.90248, 4.553873E-4, NaN, NaN, NaN, 0.0579869, "- N/A -   "
0.21, 8.020428, 4.720478E-4, NaN, NaN, NaN, 0.0579869, "- N/A -   "
0.22, 8.256323, 0.000491485, NaN, NaN, NaN, 0.05676616, "- N/A -   "
0.23, 8.610166, 0.000510922, NaN, NaN, NaN, 0.0555454, "- N/A -   "
0.24, 8.846061, 0.000527583, NaN, NaN, NaN, 0.0555454, "- N/A -   "
0.25, 9.081955, 5.470201E-4, NaN, NaN, NaN, 0.0543246, "- N/A -   "
0.26, 9.31785, 0.000569234, NaN, NaN, NaN, 0.0531038, "- N/A -   "
0.27, 9.671693, 0.000588671, NaN, NaN, NaN, 0.05066227, "- N/A -   "
0.28, 9.907588, 0.000608109, NaN, NaN, NaN, 0.0494415, "- N/A -   "
0.29, 10.26143, 0.000627546, NaN, NaN, NaN, 0.0482207, "- N/A -   "
0.3, 10.4973, 6.497599E-4, NaN, NaN, NaN, 0.04577916, "- N/A -   "
0.31, 10.8512, 6.719739E-4, NaN, NaN, NaN, 0.0433376, "- N/A -   "
0.32, 11.0871, 6.914112E-4, NaN, NaN, NaN, 0.04211683, "- N/A -   "
0.33, 11.323, 7.108485E-4, NaN, NaN, NaN, 0.04089605, "- N/A -   "
0.34, 11.5589, 7.27509E-4, NaN, NaN, NaN, 0.04089605, "- N/A -   "
0.35, 11.7947, 0.000746946, NaN, NaN, NaN, 0.0396753, "- N/A -   "
0.36, 12.14859, 0.000763607, NaN, NaN, NaN, 0.0396753, "- N/A -   "
0.37, 12.3845, 0.000783044, NaN, NaN, NaN, 0.0384545, "- N/A -   "
0.38, 12.6204, 7.997045E-4, NaN, NaN, NaN, 0.0384545, "- N/A -   "
0.39, 12.9742, 8.191418E-4, NaN, NaN, NaN, 0.0372337, "- N/A -   "
0.4, 13.2101, 8.38579E-4, NaN, NaN, NaN, 0.03601294, "- N/A -   "
0.409, 13.446, 8.552396E-4, NaN, NaN, NaN, 0.03601294, "- N/A -   "
0.46, 14.7434, 0.000941319, NaN, NaN, NaN, 0.0347922, "- N/A -   "
0.51, 15.805, 0.0010274, NaN, NaN, NaN, 0.0335714, "- N/A -   "
0.56, 17.2203, 0.001119031, NaN, NaN, NaN, 0.0299091, "- N/A -   "
0.61, 18.3998, 0.00120233, NaN, NaN, NaN, 0.0299091, "- N/A -   "
0.66, 19.57928, 0.00128564, NaN, NaN, NaN, 0.0299091, "- N/A -   "
0.71, 20.6408, 0.00136339, NaN, NaN, NaN, 0.0323506, "- N/A -   "
0.76, 21.5844, 0.0014328, NaN, NaN, NaN, 0.0384545, "- N/A -   "
0.81, 22.7639, 0.001505, NaN, NaN, NaN, 0.0433376, "- N/A -   "
0.86, 23.82539, 0.00158553, NaN, NaN, NaN, 0.0445584, "- N/A -   "
0.91, 25.1228, 0.00166883, NaN, NaN, NaN, 0.0445584, "- N/A -   "
0.96, 26.3023, 0.00174935, NaN, NaN, NaN, 0.04577916, "- N/A -   "
1.01, 27.8356, 0.00184376, NaN, NaN, NaN, 0.04089605, "- N/A -   "
1.06, 29.0151, 0.001935396, NaN, NaN, NaN, 0.0372337, "- N/A -   "
1.11, 30.5484, 0.00203258, NaN, NaN, NaN, 0.03112983, "- N/A -   "
1.16, 31.9638, 0.00211866, NaN, NaN, NaN, 0.0299091, "- N/A -   "
1.21, 33.2612, 0.002204741, NaN, NaN, NaN, 0.0286883, "- N/A -   "
1.26, 34.55861, 0.00228249, NaN, NaN, NaN, 0.03112983, "- N/A -   "
1.31, 35.85603, 0.00235746, NaN, NaN, NaN, 0.0347922, "- N/A -   "
1.36, 36.9176, 0.00243243, NaN, NaN, NaN, 0.0384545, "- N/A -   "
1.41, 38.4509, 0.00251574, NaN, NaN, NaN, 0.0384545, "- N/A -   "
1.46, 39.7483, 0.00259349, NaN, NaN, NaN, 0.04089605, "- N/A -   "
1.51, 41.04572, 0.00267401, NaN, NaN, NaN, 0.04211683, "- N/A -   "
1.56, 42.3431, 0.00275454, NaN, NaN, NaN, 0.0433376, "- N/A -   "
1.61, 43.75851, 0.00283229, NaN, NaN, NaN, 0.04577916, "- N/A -   "
1.66, 45.29183, 0.0029267, NaN, NaN, NaN, 0.04089605, "- N/A -   "
1.71, 47.061, 0.003029436, NaN, NaN, NaN, 0.0323506, "- N/A -   "
1.76, 48.7123, 0.00311829, NaN, NaN, NaN, 0.0299091, "- N/A -   "
1.81, 50.1277, 0.003198818, NaN, NaN, NaN, 0.03112983, "- N/A -   "
1.86, 51.4251, 0.003271014, NaN, NaN, NaN, 0.03601294, "- N/A -   "
1.91, 52.84047, 0.00334876, NaN, NaN, NaN, 0.0384545, "- N/A -   "
1.96, 54.6097, 0.003437619, NaN, NaN, NaN, 0.03601294, "- N/A -   "
2.01, 56.2609, 0.00352925, NaN, NaN, NaN, 0.0323506, "- N/A -   "
2.06, 57.91221, 0.00361255, NaN, NaN, NaN, 0.0323506, "- N/A -   "
2.11, 59.3276, 0.00368753, NaN, NaN, NaN, 0.03601294, "- N/A -   "
2.16, 60.7429, 0.0037625, NaN, NaN, NaN, 0.0396753, "- N/A -   "
2.21, 62.2763, 0.0038458, NaN, NaN, NaN, 0.0396753, "- N/A -   "
2.26, 63.80958, 0.00392633, NaN, NaN, NaN, 0.04089605, "- N/A -   "
2.31, 65.5788, 0.00400963, NaN, NaN, NaN, 0.04089605, "- N/A -   "
2.36, 67.34801, 0.00410126, NaN, NaN, NaN, 0.0372337, "- N/A -   "
2.41, 69.23517, 0.00419012, NaN, NaN, NaN, 0.0347922, "- N/A -   "
2.46, 70.7685, 0.00427064, NaN, NaN, NaN, 0.03601294, "- N/A -   "
2.51, 72.3018, 0.004353947, NaN, NaN, NaN, 0.03601294, "- N/A -   "
2.56, 74.189, 0.004442803, NaN, NaN, NaN, 0.0335714, "- N/A -   "
2.61, 75.8402, 0.00452611, NaN, NaN, NaN, 0.0335714, "- N/A -   "
2.66, 77.49149, 0.004609408, NaN, NaN, NaN, 0.0335714, "- N/A -   "
2.71, 79.14275, 0.00468993, NaN, NaN, NaN, 0.0347922, "- N/A -   "
2.76, 80.912, 0.004776013, NaN, NaN, NaN, 0.0347922, "- N/A -   "
2.81, 82.68118, 0.004856539, NaN, NaN, NaN, 0.0347922, "- N/A -   "
2.86, 84.09654, 0.004934288, NaN, NaN, NaN, 0.0372337, "- N/A -   "
2.91, 85.86576, 0.005012037, NaN, NaN, NaN, 0.0396753, "- N/A -   "
2.96, 87.39908, 0.005092563, NaN, NaN, NaN, 0.04089605, "- N/A -   "
3.01, 89.16828, 0.005173089, NaN, NaN, NaN, 0.04211683, "- N/A -   "
3.06, 90.9375, 0.00525917, NaN, NaN, NaN, 0.04089605, "- N/A -   "
3.11, 92.94261, 0.005350801, NaN, NaN, NaN, 0.0372337, "- N/A -   "
3.16, 94.8298, 0.00544521, NaN, NaN, NaN, 0.0323506, "- N/A -   "
3.21, 96.599, 0.00552851, NaN, NaN, NaN, 0.0323506, "- N/A -   "
3.26, 98.13229, 0.00560626, NaN, NaN, NaN, 0.0347922, "- N/A -   "
3.31, 99.9015, 0.00568956, NaN, NaN, NaN, 0.0347922, "- N/A -   "
3.36, 101.789, 0.00578397, NaN, NaN, NaN, 0.03112983, "- N/A -   "
3.41, 103.558, 0.005867277, NaN, NaN, NaN, 0.0299091, "- N/A -   "
3.46, 105.209, 0.0059478, NaN, NaN, NaN, 0.03112983, "- N/A -   "
3.51, 106.625, 0.006019998, NaN, NaN, NaN, 0.03601294, "- N/A -   "
3.56, 108.04, 0.00609219, NaN, NaN, NaN, 0.04211683, "- N/A -   "
3.61, 109.5732, 0.00616994, NaN, NaN, NaN, 0.0445584, "- N/A -   "
3.66, 111.224, 0.006244915, NaN, NaN, NaN, 0.0482207, "- N/A -   "
3.71, 113.112, 0.006336548, NaN, NaN, NaN, 0.0445584, "- N/A -   "
3.76, 115.235, 0.006436511, NaN, NaN, NaN, 0.0372337, "- N/A -   "
3.81, 117.004, 0.006525367, NaN, NaN, NaN, 0.0347922, "- N/A -   "
3.86, 118.7731, 0.006605893, NaN, NaN, NaN, 0.03601294, "- N/A -   "
3.909, 120.542, 0.006694749, NaN, NaN, NaN, 0.0335714, "- N/A -   "
3.96, 122.429, 0.006783605, NaN, NaN, NaN, 0.03112983, "- N/A -   "
4.01, 124.317, 0.006875238, NaN, NaN, NaN, 0.0274675, "- N/A -   "
4.06, 125.732, 0.00695021, NaN, NaN, NaN, 0.03112983, "- N/A -   "
4.11, 127.265, 0.00702518, NaN, NaN, NaN, 0.0347922, "- N/A -   "
4.16, 128.799, 0.00709738, NaN, NaN, NaN, 0.0396753, "- N/A -   "
4.21, 130.214, 0.007175127, NaN, NaN, NaN, 0.04211683, "- N/A -   "
4.26, 131.865, 0.007252876, NaN, NaN, NaN, 0.0445584, "- N/A -   "
4.31, 133.517, 0.00733896, NaN, NaN, NaN, 0.0445584, "- N/A -   "
4.36, 135.1678, 0.00741948, NaN, NaN, NaN, 0.0445584, "- N/A -   "
4.41, 137.055, 0.00750834, NaN, NaN, NaN, 0.04211683, "- N/A -   "
4.46, 138.942, 0.00760275, NaN, NaN, NaN, 0.0372337, "- N/A -   "
4.51, 141.065, 0.00770271, NaN, NaN, NaN, 0.0299091, "- N/A -   "
4.56, 142.5985, 0.00778601, NaN, NaN, NaN, 0.0299091, "- N/A -   "
4.61, 144.368, 0.007872092, NaN, NaN, NaN, 0.0286883, "- N/A -   "
4.66, 145.783, 0.007949841, NaN, NaN, NaN, 0.03112983, "- N/A -   "
4.71, 147.198, 0.008022036, NaN, NaN, NaN, 0.03601294, "- N/A -   "
4.76, 148.732, 0.008105339, NaN, NaN, NaN, 0.03601294, "- N/A -   "
4.81, 150.265, 0.008188642, NaN, NaN, NaN, 0.03601294, "- N/A -   "
4.86, 151.68, 0.008271944, NaN, NaN, NaN, 0.03601294, "- N/A -   "
4.91, 152.86, 0.008341363, NaN, NaN, NaN, 0.04211683, "- N/A -   "
4.96, 154.511, 0.008421889, NaN, NaN, NaN, 0.0433376, "- N/A -   "
5.01, 156.0445, 0.008505192, NaN, NaN, NaN, 0.0433376, "- N/A -   "
5.06, 157.578, 0.00859127, NaN, NaN, NaN, 0.04211683, "- N/A -   "
5.11, 159.229, 0.00868568, NaN, NaN, NaN, 0.0372337, "- N/A -   "
5.16, 160.998, 0.008780089, NaN, NaN, NaN, 0.0335714, "- N/A -   "
5.21, 162.65, 0.008868946, NaN, NaN, NaN, 0.0299091, "- N/A -   "
5.26, 163.711, 0.008941141, NaN, NaN, NaN, 0.0347922, "- N/A -   "
5.31, 165.126, 0.009018891, NaN, NaN, NaN, 0.0372337, "- N/A -   "
5.36, 166.778, 0.009107746, NaN, NaN, NaN, 0.0347922, "- N/A -   "
5.41, 168.311, 0.009196603, NaN, NaN, NaN, 0.0323506, "- N/A -   "
5.46, 169.962, 0.009279905, NaN, NaN, NaN, 0.0323506, "- N/A -   "
5.51, 171.142, 0.009354877, NaN, NaN, NaN, 0.03601294, "- N/A -   "
5.56, 172.4392, 0.00942985, NaN, NaN, NaN, 0.04089605, "- N/A -   "
5.61, 173.973, 0.009507598, NaN, NaN, NaN, 0.04211683, "- N/A -   "
5.66, 175.506, 0.009596454, NaN, NaN, NaN, 0.0396753, "- N/A -   "
5.71, 177.1571, 0.009682534, NaN, NaN, NaN, 0.0396753, "- N/A -   "
5.76, 178.572, 0.009765836, NaN, NaN, NaN, 0.0384545, "- N/A -   "
5.81, 180.106, 0.009851916, NaN, NaN, NaN, 0.0372337, "- N/A -   "
5.86, 181.639, 0.009940772, NaN, NaN, NaN, 0.0347922, "- N/A -   "
5.91, 183.054, 0.0100213, NaN, NaN, NaN, 0.03601294, "- N/A -   "
5.96, 184.824, 0.0101157, NaN, NaN, NaN, 0.03112983, "- N/A -   "
6.01, 186.239, 0.0101962, NaN, NaN, NaN, 0.0323506, "- N/A -   "
6.06, 187.654, 0.0102768, NaN, NaN, NaN, 0.0335714, "- N/A -   "
6.11, 189.188, 0.0103573, NaN, NaN, NaN, 0.0347922, "- N/A -   "
6.16, 190.721, 0.0104406, NaN, NaN, NaN, 0.0347922, "- N/A -   "
6.21, 192.136, 0.01052389, NaN, NaN, NaN, 0.0347922, "- N/A -   "
6.26, 193.5518, 0.0105989, NaN, NaN, NaN, 0.0384545, "- N/A -   "
6.31, 194.849, 0.0106794, NaN, NaN, NaN, 0.0396753, "- N/A -   "
6.36, 196.383, 0.0107627, NaN, NaN, NaN, 0.0396753, "- N/A -   "
6.41, 197.798, 0.0108404, NaN, NaN, NaN, 0.04211683, "- N/A -   "
6.46, 199.213, 0.010921, NaN, NaN, NaN, 0.0433376, "- N/A -   "
6.51, 200.9825, 0.0110154, NaN, NaN, NaN, 0.0384545, "- N/A -   "
6.56, 202.634, 0.0111098, NaN, NaN, NaN, 0.0335714, "- N/A -   "
6.61, 204.403, 0.0111959, NaN, NaN, NaN, 0.0323506, "- N/A -   "
6.66, 205.7, 0.0112736, NaN, NaN, NaN, 0.0347922, "- N/A -   "
6.71, 207.352, 0.0113597, NaN, NaN, NaN, 0.0335714, "- N/A -   "
6.76, 209.003, 0.0114513, NaN, NaN, NaN, 0.0299091, "- N/A -   "
6.79, 209.829, 0.0115069, NaN, NaN, NaN, 0.0274675, "- N/A -   "
6.8, 210.3, 0.0115235, NaN, NaN, NaN, 0.0274675, "- N/A -   "
6.81, 210.536, 0.0115402, NaN, NaN, NaN, 0.0274675, "- N/A -   "
6.82, 210.772, 0.0115541, NaN, NaN, NaN, 0.0286883, "- N/A -   "
6.83, 211.008, 0.0115679, NaN, NaN, NaN, 0.0299091, "- N/A -   "
6.84, 211.362, 0.0115846, NaN, NaN, NaN, 0.0299091, "- N/A -   "
6.85, 211.598, 0.0115985, NaN, NaN, NaN, 0.03112983, "- N/A -   "
6.86, 211.9516, 0.0116124, NaN, NaN, NaN, 0.0323506, "- N/A -   "
6.87, 212.07, 0.011629, NaN, NaN, NaN, 0.0323506, "- N/A -   "
6.88, 212.4234, 0.0116429, NaN, NaN, NaN, 0.0335714, "- N/A -   "
6.89, 212.6593, 0.0116596, NaN, NaN, NaN, 0.0335714, "- N/A -   "
6.9, 213.013, 0.0116762, NaN, NaN, NaN, 0.0335714, "- N/A -   "
6.91, 213.249, 0.0116901, NaN, NaN, NaN, 0.0347922, "- N/A -   "
6.92, 213.485, 0.011704, NaN, NaN, NaN, 0.03601294, "- N/A -   "
6.93, 213.721, 0.0117151, NaN, NaN, NaN, 0.0384545, "- N/A -   "
6.94, 213.957, 0.011729, NaN, NaN, NaN, 0.0396753, "- N/A -   "
6.95, 214.1926, 0.0117429, NaN, NaN, NaN, 0.04089605, "- N/A -   "
6.96, 214.311, 0.0117568, NaN, NaN, NaN, 0.04211683, "- N/A -   "
6.97, 214.6644, 0.0117707, NaN, NaN, NaN, 0.0433376, "- N/A -   "
6.98, 214.9, 0.0117845, NaN, NaN, NaN, 0.0445584, "- N/A -   "
6.99, 215.136, 0.0118012, NaN, NaN, NaN, 0.0445584, "- N/A -   "
7, 215.49, 0.0118179, NaN, NaN, NaN, 0.0445584, "- N/A -   "
7.01, 215.726, 0.01183174, NaN, NaN, NaN, 0.04577916, "- N/A -   "
7.02, 216.08, 0.0118484, NaN, NaN, NaN, 0.04577916, "- N/A -   "
7.03, 216.434, 0.0118651, NaN, NaN, NaN, 0.04577916, "- N/A -   "
7.04, 216.67, 0.0118789, NaN, NaN, NaN, 0.04699994, "- N/A -   "
7.05, 217.023, 0.0118956, NaN, NaN, NaN, 0.04699994, "- N/A -   "
7.06, 217.141, 0.0119123, NaN, NaN, NaN, 0.04699994, "- N/A -   "
7.07, 217.495, 0.0119289, NaN, NaN, NaN, 0.04699994, "- N/A -   "
7.08, 217.849, 0.0119456, NaN, NaN, NaN, 0.04699994, "- N/A -   "
7.09, 218.203, 0.011965, NaN, NaN, NaN, 0.04577916, "- N/A -   "
7.1, 218.557, 0.0119817, NaN, NaN, NaN, 0.04577916, "- N/A -   "
7.11, 218.9105, 0.0119983, NaN, NaN, NaN, 0.04577916, "- N/A -   "
7.12, 219.264, 0.0120178, NaN, NaN, NaN, 0.0445584, "- N/A -   "
7.13, 219.736, 0.0120372, NaN, NaN, NaN, 0.0433376, "- N/A -   "
7.14, 220.208, 0.0120567, NaN, NaN, NaN, 0.04211683, "- N/A -   "
7.15, 220.444, 0.0120789, NaN, NaN, NaN, 0.0396753, "- N/A -   "
7.16, 220.798, 0.0120955, NaN, NaN, NaN, 0.0396753, "- N/A -   "
7.17, 221.152, 0.0121177, NaN, NaN, NaN, 0.0384545, "- N/A -   "
7.18, 221.505, 0.0121344, NaN, NaN, NaN, 0.0372337, "- N/A -   "
7.19, 221.741, 0.0121538, NaN, NaN, NaN, 0.03601294, "- N/A -   "
7.2, 222.213, 0.0121705, NaN, NaN, NaN, 0.03601294, "- N/A -   "
7.21, 222.449, 0.0121899, NaN, NaN, NaN, 0.0347922, "- N/A -   "
7.22, 222.803, 0.0122066, NaN, NaN, NaN, 0.0347922, "- N/A -   "
7.23, 223.275, 0.012226, NaN, NaN, NaN, 0.0335714, "- N/A -   "
7.24, 223.51, 0.0122427, NaN, NaN, NaN, 0.0335714, "- N/A -   "
7.25, 223.8643, 0.0122621, NaN, NaN, NaN, 0.0323506, "- N/A -   "
7.26, 224.1002, 0.0122788, NaN, NaN, NaN, 0.0323506, "- N/A -   "
7.27, 224.454, 0.0122955, NaN, NaN, NaN, 0.0323506, "- N/A -   "
7.28, 224.926, 0.0123121, NaN, NaN, NaN, 0.0323506, "- N/A -   "
7.29, 225.162, 0.0123316, NaN, NaN, NaN, 0.03112983, "- N/A -   "
7.3, 225.516, 0.0123482, NaN, NaN, NaN, 0.03112983, "- N/A -   "
7.31, 225.8694, 0.0123677, NaN, NaN, NaN, 0.0299091, "- N/A -   "
7.32, 226.223, 0.01238709, NaN, NaN, NaN, 0.0286883, "- N/A -   "
7.33, 226.459, 0.01240375, NaN, NaN, NaN, 0.0286883, "- N/A -   "
7.34, 226.931, 0.0124232, NaN, NaN, NaN, 0.0274675, "- N/A -   "
7.35, 227.285, 0.0124398, NaN, NaN, NaN, 0.0274675, "- N/A -   "
7.36, 227.521, 0.0124593, NaN, NaN, NaN, 0.0262467, "- N/A -   "
7.37, 227.757, 0.0124759, NaN, NaN, NaN, 0.0262467, "- N/A -   "
7.38, 227.992, 0.0124926, NaN, NaN, NaN, 0.0274675, "- N/A -   "
7.39, 228.464, 0.0125065, NaN, NaN, NaN, 0.0274675, "- N/A -   "
7.4, 228.7, 0.0125232, NaN, NaN, NaN, 0.0274675, "- N/A -   "
7.41, 229.054, 0.0125398, NaN, NaN, NaN, 0.0274675, "- N/A -   "
7.53, 232.357, 0.0127231, NaN, NaN, NaN, 0.0347922, "- N/A -   "
7.65, 235.777, 0.0129036, NaN, NaN, NaN, 0.0433376, "- N/A -   "
7.77, 239.433, 0.0131007, NaN, NaN, NaN, 0.0445584, "- N/A -   "
7.89, 243.7961, 0.0133201, NaN, NaN, NaN, 0.03601294, "- N/A -   "
8.01, 248.038, 0.0135422, NaN, NaN, NaN, 0.0262467, "- N/A -   "
8.13, 251.5726, 0.0137283, NaN, NaN, NaN, 0.0335714, "- N/A -   "
8.25, 255.343, 0.0139199, NaN, NaN, NaN, 0.0372337, "- N/A -   "
8.37, 258.878, 0.0141059, NaN, NaN, NaN, 0.0433376, "- N/A -   "
8.49, 263.002, 0.0143114, NaN, NaN, NaN, 0.04089605, "- N/A -   "
8.61, 267.597, 0.0145391, NaN, NaN, NaN, 0.0299091, "- N/A -   "
8.73, 271.132, 0.0147251, NaN, NaN, NaN, 0.0347922, "- N/A -   "
8.85, 275.256, 0.0149278, NaN, NaN, NaN, 0.0335714, "- N/A -   "
8.97, 278.908, 0.0151139, NaN, NaN, NaN, 0.0396753, "- N/A -   "
9.09, 282.7965, 0.0153082, NaN, NaN, NaN, 0.04211683, "- N/A -   "
9.21, 287.038, 0.01551649, NaN, NaN, NaN, 0.0384545, "- N/A -   "
9.33, 291.162, 0.0157192, NaN, NaN, NaN, 0.0372337, "- N/A -   "
9.45, 295.2861, 0.0159274, NaN, NaN, NaN, 0.0335714, "- N/A -   "
9.57, 299.292, 0.0161302, NaN, NaN, NaN, 0.0323506, "- N/A -   "
9.69, 303.063, 0.0163162, NaN, NaN, NaN, 0.0384545, "- N/A -   "
9.81, 306.833, 0.01649946, NaN, NaN, NaN, 0.04577916, "- N/A -   "
9.93, 311.31, 0.016716, NaN, NaN, NaN, 0.0384545, "- N/A -   "
10.05, 315.67, 0.0169271, NaN, NaN, NaN, 0.0335714, "- N/A -   "
10.17, 320.03, 0.0171353, NaN, NaN, NaN, 0.0299091, "- N/A -   "
10.29, 324.036, 0.0173325, NaN, NaN, NaN, 0.03112983, "- N/A -   "
10.41, 327.4526, 0.0175046, NaN, NaN, NaN, 0.0433376, "- N/A -   "
10.53, 331.812, 0.0177101, NaN, NaN, NaN, 0.04089605, "- N/A -   "
10.65, 336.172, 0.01791838, NaN, NaN, NaN, 0.0372337, "- N/A -   "
10.77, 340.885, 0.0181377, NaN, NaN, NaN, 0.0286883, "- N/A -   "
10.89, 345.009, 0.0183321, NaN, NaN, NaN, 0.03112983, "- N/A -   "
11.01, 348.5435, 0.0185098, NaN, NaN, NaN, 0.04089605, "- N/A -   "
11.13, 352.785, 0.018707, NaN, NaN, NaN, 0.04211683, "- N/A -   "
11.25, 357.027, 0.01890968, NaN, NaN, NaN, 0.04089605, "- N/A -   "
11.37, 362.2113, 0.01914015, NaN, NaN, NaN, 0.0274675, "- N/A -   "
11.49, 366.217, 0.0193317, NaN, NaN, NaN, 0.03112983, "- N/A -   "
11.61, 370.3413, 0.01952612, NaN, NaN, NaN, 0.0347922, "- N/A -   "
11.73, 374.23, 0.0197066, NaN, NaN, NaN, 0.04211683, "- N/A -   "
11.85, 378.4713, 0.0199038, NaN, NaN, NaN, 0.0433376, "- N/A -   "
11.97, 383.656, 0.0201315, NaN, NaN, NaN, 0.03112983, "- N/A -   "
12.09, 387.662, 0.020323, NaN, NaN, NaN, 0.0347922, "- N/A -   "
12.21, 392.139, 0.02052575, NaN, NaN, NaN, 0.0335714, "- N/A -   "
12.33, 396.499, 0.0207201, NaN, NaN, NaN, 0.03601294, "- N/A -   "
12.45, 400.858, 0.0209173, NaN, NaN, NaN, 0.0372337, "- N/A -   "
12.57, 405.218, 0.0211116, NaN, NaN, NaN, 0.0396753, "- N/A -   "
12.69, 409.813, 0.0213227, NaN, NaN, NaN, 0.03601294, "- N/A -   "
12.81, 414.762, 0.0215393, NaN, NaN, NaN, 0.0286883, "- N/A -   "
12.93, 419.003, 0.0217336, NaN, NaN, NaN, 0.0323506, "- N/A -   "
13.05, 423.363, 0.021928, NaN, NaN, NaN, 0.0335714, "- N/A -   "
13.17, 426.78, 0.02208906, NaN, NaN, NaN, 0.05066227, "- N/A -   "
13.29, 431.611, 0.0222973, NaN, NaN, NaN, 0.04699994, "- N/A -   "
13.41, 437.031, 0.02252501, NaN, NaN, NaN, 0.0347922, "- N/A -   "
13.53, 441.6261, 0.0227333, NaN, NaN, NaN, 0.03112983, "- N/A -   "
13.65, 446.339, 0.02293597, NaN, NaN, NaN, 0.0299091, "- N/A -   "
13.77, 450.227, 0.02311646, NaN, NaN, NaN, 0.0384545, "- N/A -   "
13.89, 454.351, 0.0232969, NaN, NaN, NaN, 0.04699994, "- N/A -   "
14.01, 459.536, 0.0235163, NaN, NaN, NaN, 0.0384545, "- N/A -   "
14.13, 464.484, 0.0237301, NaN, NaN, NaN, 0.0323506, "- N/A -   "
14.25, 469.433, 0.0239412, NaN, NaN, NaN, 0.0274675, "- N/A -   "
14.37, 473.557, 0.0241216, NaN, NaN, NaN, 0.03601294, "- N/A -   "
14.49, 477.563, 0.0243021, NaN, NaN, NaN, 0.0445584, "- N/A -   "
14.61, 482.394, 0.0245048, NaN, NaN, NaN, 0.0433376, "- N/A -   "
14.73, 487.932, 0.02473253, NaN, NaN, NaN, 0.03112983, "- N/A -   "
14.85, 492.409, 0.0249269, NaN, NaN, NaN, 0.0335714, "- N/A -   "
14.97, 497.122, 0.02512405, NaN, NaN, NaN, 0.0347922, "- N/A -   "
15.09, 501.7174, 0.0253156, NaN, NaN, NaN, 0.0384545, "- N/A -   "
15.21, 505.9591, 0.0255017, NaN, NaN, NaN, 0.0445584, "- N/A -   "
15.33, 511.2613, 0.0257211, NaN, NaN, NaN, 0.03601294, "- N/A -   "
15.45, 516.22, 0.02593764, NaN, NaN, NaN, 0.0299091, "- N/A -   "
15.57, 520.7151, 0.02612368, NaN, NaN, NaN, 0.0347922, "- N/A -   "
15.69, 525.8012, 0.0263292, NaN, NaN, NaN, 0.0323506, "- N/A -   "
15.81, 530.0593, 0.02650965, NaN, NaN, NaN, 0.04089605, "- N/A -   "
15.929, 534.9088, 0.0267096, NaN, NaN, NaN, 0.04089605, "- N/A -   "
16.05, 539.9949, 0.0269178, NaN, NaN, NaN, 0.0372337, "- N/A -   "
16.169, 545.1993, 0.02712609, NaN, NaN, NaN, 0.0335714, "- N/A -   "
16.29, 550.049, 0.0273288, NaN, NaN, NaN, 0.0323506, "- N/A -   "
16.41, 554.8983, 0.0275259, NaN, NaN, NaN, 0.0335714, "- N/A -   "
16.53, 559.5112, 0.0277175, NaN, NaN, NaN, 0.0372337, "- N/A -   "
16.65, 564.2425, 0.02790358, NaN, NaN, NaN, 0.0433376, "- N/A -   "
16.77, 569.565, 0.0281202, NaN, NaN, NaN, 0.03601294, "- N/A -   "
16.89, 574.6512, 0.0283256, NaN, NaN, NaN, 0.0335714, "- N/A -   "
17.01, 580.092, 0.0285395, NaN, NaN, NaN, 0.0274675, "- N/A -   "
17.13, 584.7051, 0.0287311, NaN, NaN, NaN, 0.0323506, "- N/A -   "
17.25, 588.8449, 0.0289004, NaN, NaN, NaN, 0.04577916, "- N/A -   "
17.37, 594.049, 0.0291087, NaN, NaN, NaN, 0.0433376, "- N/A -   "
17.49, 599.727, 0.02933083, NaN, NaN, NaN, 0.0323506, "- N/A -   "
17.61, 604.8128, 0.0295308, NaN, NaN, NaN, 0.0323506, "- N/A -   "
17.73, 609.781, 0.0297335, NaN, NaN, NaN, 0.03112983, "- N/A -   "
17.85, 614.039, 0.02990562, NaN, NaN, NaN, 0.0445584, "- N/A -   "
17.97, 619.125, 0.0301055, NaN, NaN, NaN, 0.0433376, "- N/A -   "
18.09, 624.447, 0.0303138, NaN, NaN, NaN, 0.0396753, "- N/A -   "
18.21, 630.3615, 0.0305443, NaN, NaN, NaN, 0.0262467, "- N/A -   "
18.33, 634.8562, 0.0307275, NaN, NaN, NaN, 0.0335714, "- N/A -   "
18.45, 640.061, 0.0309219, NaN, NaN, NaN, 0.03601294, "- N/A -   "
18.57, 644.5552, 0.0311052, NaN, NaN, NaN, 0.0433376, "- N/A -   "
18.69, 649.523, 0.03129677, NaN, NaN, NaN, 0.04699994, "- N/A -   "
18.81, 655.7919, 0.0315328, NaN, NaN, NaN, 0.0323506, "- N/A -   "
18.93, 660.5231, 0.03172717, NaN, NaN, NaN, 0.0335714, "- N/A -   "
19.05, 665.7274, 0.0319271, NaN, NaN, NaN, 0.0335714, "- N/A -   "
19.17, 670.695, 0.03211869, NaN, NaN, NaN, 0.0372337, "- N/A -   "
19.29, 675.663, 0.0323103, NaN, NaN, NaN, 0.04089605, "- N/A -   "
19.41, 680.8674, 0.0325158, NaN, NaN, NaN, 0.0384545, "- N/A -   "
19.53, 686.0717, 0.0327212, NaN, NaN, NaN, 0.03601294, "- N/A -   "
19.65, 691.7492, 0.0329323, NaN, NaN, NaN, 0.03112983, "- N/A -   "
19.77, 696.954, 0.0331322, NaN, NaN, NaN, 0.03112983, "- N/A -   "
19.89, 701.8031, 0.0333266, NaN, NaN, NaN, 0.0335714, "- N/A -   "
20.01, 706.4161, 0.0335071, NaN, NaN, NaN, 0.04211683, "- N/A -   "
20.13, 711.502, 0.0337042, NaN, NaN, NaN, 0.0433376, "- N/A -   "
20.25, 717.6527, 0.0339319, NaN, NaN, NaN, 0.03112983, "- N/A -   "
20.37, 722.502, 0.0341235, NaN, NaN, NaN, 0.0347922, "- N/A -   "
20.49, 728.0614, 0.0343373, NaN, NaN, NaN, 0.0286883, "- N/A -   "
20.61, 732.2013, 0.0345011, NaN, NaN, NaN, 0.0445584, "- N/A -   "
20.73, 737.406, 0.03469829, NaN, NaN, NaN, 0.04577916, "- N/A -   "
20.85, 743.32, 0.03492043, NaN, NaN, NaN, 0.03601294, "- N/A -   "
20.97, 748.761, 0.0351315, NaN, NaN, NaN, 0.03112983, "- N/A -   "
21.09, 754.2015, 0.03533972, NaN, NaN, NaN, 0.0274675, "- N/A -   "
21.21, 758.814, 0.03552021, NaN, NaN, NaN, 0.03601294, "- N/A -   "
21.33, 763.7823, 0.0357035, NaN, NaN, NaN, 0.0433376, "- N/A -   "
21.45, 768.868, 0.0359006, NaN, NaN, NaN, 0.0445584, "- N/A -   "
21.57, 775.0189, 0.0361311, NaN, NaN, NaN, 0.03112983, "- N/A -   "
21.69, 780.105, 0.0363282, NaN, NaN, NaN, 0.0335714, "- N/A -   "
21.81, 785.0728, 0.0365171, NaN, NaN, NaN, 0.0384545, "- N/A -   "
21.93, 790.395, 0.0367198, NaN, NaN, NaN, 0.0372337, "- N/A -   "
22.05, 795.1267, 0.0369003, NaN, NaN, NaN, 0.04577916, "- N/A -   "
22.17, 801.396, 0.03713073, NaN, NaN, NaN, 0.0335714, "- N/A -   "
22.29, 806.7182, 0.03733343, NaN, NaN, NaN, 0.03112983, "- N/A -   "
22.41, 811.686, 0.03752225, NaN, NaN, NaN, 0.03601294, "- N/A -   "
22.53, 817.1269, 0.03772773, NaN, NaN, NaN, 0.0335714, "- N/A -   "
22.65, 821.74, 0.0379082, NaN, NaN, NaN, 0.04211683, "- N/A -   "
22.77, 827.0625, 0.0381081, NaN, NaN, NaN, 0.04211683, "- N/A -   "
22.89, 832.74, 0.0383192, NaN, NaN, NaN, 0.0372337, "- N/A -   "
23.01, 838.0626, 0.0385247, NaN, NaN, NaN, 0.0347922, "- N/A -   "
23.13, 843.267, 0.0387246, NaN, NaN, NaN, 0.0347922, "- N/A -   "
23.25, 848.5896, 0.0389245, NaN, NaN, NaN, 0.0347922, "- N/A -   "
23.37, 853.5574, 0.0391133, NaN, NaN, NaN, 0.0396753, "- N/A -   "
23.49, 858.6435, 0.03930492, NaN, NaN, NaN, 0.0433376, "- N/A -   "
23.61, 864.7941, 0.0395354, NaN, NaN, NaN, 0.03112983, "- N/A -   "
23.73, 869.8802, 0.039727, NaN, NaN, NaN, 0.0335714, "- N/A -   "
23.85, 875.4394, 0.039938, NaN, NaN, NaN, 0.0286883, "- N/A -   "
23.97, 880.289, 0.0401241, NaN, NaN, NaN, 0.0347922, "- N/A -   "
24.09, 884.784, 0.040299, NaN, NaN, NaN, 0.04577916, "- N/A -   "
24.21, 890.579, 0.0405128, NaN, NaN, NaN, 0.0396753, "- N/A -   "
24.33, 896.257, 0.04072384, NaN, NaN, NaN, 0.0347922, "- N/A -   "
24.427, 900.9881, 0.0409016, NaN, NaN, NaN, 0.0286883, "- N/A -   "