File: 2_Tensile_Data/Hamel_ForceTest_Bolt4_Test10.csv
Time, Load (lb), Position (in), AxialStrain (in), TransverseStrain (in), Auxiliary (), Control Out (V), Stress (psi)
0.0, 14.2716, 0.0, NaN, NaN, NaN, -0.007935055, "- N/A -   "
0.01, 14.3896, 0.0, NaN, NaN, NaN, -6.103888E-4, "- N/A -   "
0.02, 14.2716, 0.0, NaN, NaN, NaN, 0.0115974, "- N/A -   "
0.03, 14.3896, 2.776752E-6, NaN, NaN, NaN, 0.0299091, "- N/A -   "
0.04, 14.3896, 8.330256E-6, NaN, NaN, NaN, 0.04699994, "- N/A -   "
0.05, 14.7434, 1.94373e-05, NaN, NaN, NaN, 0.06164927, "- N/A -   "
0.06, 14.8614, 3.60978e-05, NaN, NaN, NaN, 0.07385705, "- N/A -   "
0.07, 15.4511, 5.5535e-05, NaN, NaN, NaN, 0.084844, "- N/A -   "
0.08, 16.0409, 8.05258E-5, NaN, NaN, NaN, 0.09338949, "- N/A -   "
0.09, 16.6306, 0.00011107, NaN, NaN, NaN, 0.09949338, "- N/A -   "
0.1, 17.2203, 0.000141614, NaN, NaN, NaN, 0.103156, "- N/A -   "
0.11, 17.928, 0.000177712, NaN, NaN, NaN, 0.09461027, "- N/A -   "
0.12, 18.3998, 0.000211033, NaN, NaN, NaN, 0.08850638, "- N/A -   "
0.13, 19.1075, 0.000238801, NaN, NaN, NaN, 0.08362327, "- N/A -   "
0.14, 19.4613, 0.000263791, NaN, NaN, NaN, 0.0799609, "- N/A -   "
0.15, 20.05107, 0.000288782, NaN, NaN, NaN, 0.0750778, "- N/A -   "
0.16, 20.287, 3.109962E-4, NaN, NaN, NaN, 0.07385705, "- N/A -   "
0.17, 20.7588, 0.000330433, NaN, NaN, NaN, 0.07141549, "- N/A -   "
0.18, 21.1126, 0.000349871, NaN, NaN, NaN, 0.0701947, "- N/A -   "
0.19, 21.46644, 0.000372085, NaN, NaN, NaN, 0.06775316, "- N/A -   "
0.2, 21.93823, 0.000391522, NaN, NaN, NaN, 0.06653238, "- N/A -   "
0.21, 22.29207, 4.081825E-4, NaN, NaN, NaN, 0.06653238, "- N/A -   "
0.22, 22.6459, 4.276198E-4, NaN, NaN, NaN, 0.0653116, "- N/A -   "
0.23, 22.9998, 0.000447057, NaN, NaN, NaN, 0.0640908, "- N/A -   "
0.24, 23.3536, 4.664943E-4, NaN, NaN, NaN, 0.06287005, "- N/A -   "
0.25, 23.7074, 4.887083E-4, NaN, NaN, NaN, 0.06164927, "- N/A -   "
0.26, 24.0613, 5.053688E-4, NaN, NaN, NaN, 0.0604285, "- N/A -   "
0.27, 24.4151, 5.248061E-4, NaN, NaN, NaN, 0.0592077, "- N/A -   "
0.28, 24.8869, 5.470201E-4, NaN, NaN, NaN, 0.0579869, "- N/A -   "
0.29, 25.2408, 5.664574E-4, NaN, NaN, NaN, 0.0555454, "- N/A -   "
0.3, 25.4767, 5.858946E-4, NaN, NaN, NaN, 0.0543246, "- N/A -   "
0.31, 25.9484, 6.053319E-4, NaN, NaN, NaN, 0.0531038, "- N/A -   "
0.32, 26.4202, 0.000627546, NaN, NaN, NaN, 0.05188305, "- N/A -   "
0.33, 26.6561, 0.000646983, NaN, NaN, NaN, 0.05066227, "- N/A -   "
0.34, 27.01, 0.00066642, NaN, NaN, NaN, 0.0482207, "- N/A -   "
0.35, 27.4818, 6.858577E-4, NaN, NaN, NaN, 0.04699994, "- N/A -   "
0.36, 27.8356, 0.000705295, NaN, NaN, NaN, 0.04699994, "- N/A -   "
0.37, 28.1894, 7.219555E-4, NaN, NaN, NaN, 0.04577916, "- N/A -   "
0.38, 28.54329, 7.413927E-4, NaN, NaN, NaN, 0.0445584, "- N/A -   "
0.39, 28.89713, 7.6083E-4, NaN, NaN, NaN, 0.0433376, "- N/A -   "
0.4, 29.251, 0.000780267, NaN, NaN, NaN, 0.04211683, "- N/A -   "
0.41, 29.6048, 0.000802481, NaN, NaN, NaN, 0.04089605, "- N/A -   "
0.42, 29.9587, 8.191418E-4, NaN, NaN, NaN, 0.0396753, "- N/A -   "
0.43, 30.3125, 8.38579E-4, NaN, NaN, NaN, 0.0384545, "- N/A -   "
0.44, 30.6663, 8.552396E-4, NaN, NaN, NaN, 0.0384545, "- N/A -   "
0.49, 32.1997, 9.440956E-4, NaN, NaN, NaN, 0.0372337, "- N/A -   "
0.54, 33.8509, 0.00103017, NaN, NaN, NaN, 0.0347922, "- N/A -   "
0.59, 35.6201, 0.00112181, NaN, NaN, NaN, 0.03112983, "- N/A -   "
0.64, 37.0355, 0.00120789, NaN, NaN, NaN, 0.03112983, "- N/A -   "
0.69, 38.4509, 0.00128286, NaN, NaN, NaN, 0.0335714, "- N/A -   "
0.74, 39.7483, 0.00135505, NaN, NaN, NaN, 0.0384545, "- N/A -   "
0.79, 41.04572, 0.0014328, NaN, NaN, NaN, 0.04211683, "- N/A -   "
0.84, 42.3431, 0.001510553, NaN, NaN, NaN, 0.0433376, "- N/A -   "
0.89, 43.87646, 0.00159386, NaN, NaN, NaN, 0.0433376, "- N/A -   "
0.94, 45.17388, 0.001677158, NaN, NaN, NaN, 0.0433376, "- N/A -   "
0.99, 46.5893, 0.00176601, NaN, NaN, NaN, 0.04211683, "- N/A -   "
1.04, 48.00462, 0.00186042, NaN, NaN, NaN, 0.03601294, "- N/A -   "
1.09, 49.41999, 0.00195761, NaN, NaN, NaN, 0.0299091, "- N/A -   "
1.14, 50.7174, 0.00205202, NaN, NaN, NaN, 0.0262467, "- N/A -   "
1.19, 51.89689, 0.00212977, NaN, NaN, NaN, 0.0274675, "- N/A -   "
1.24, 53.0764, 0.00220752, NaN, NaN, NaN, 0.0299091, "- N/A -   "
1.29, 54.2558, 0.00228527, NaN, NaN, NaN, 0.0323506, "- N/A -   "
1.34, 55.43531, 0.002360239, NaN, NaN, NaN, 0.03601294, "- N/A -   "
1.39, 56.73273, 0.00244354, NaN, NaN, NaN, 0.03601294, "- N/A -   "
1.44, 58.0302, 0.00252407, NaN, NaN, NaN, 0.0372337, "- N/A -   "
1.49, 59.0917, 0.00259904, NaN, NaN, NaN, 0.04089605, "- N/A -   "
1.54, 60.27116, 0.00267679, NaN, NaN, NaN, 0.0433376, "- N/A -   "
1.59, 61.56858, 0.00275731, NaN, NaN, NaN, 0.0445584, "- N/A -   "
1.64, 63.1019, 0.002843394, NaN, NaN, NaN, 0.0433376, "- N/A -   "
1.69, 64.75317, 0.00294058, NaN, NaN, NaN, 0.0372337, "- N/A -   "
1.74, 66.16853, 0.003032213, NaN, NaN, NaN, 0.0335714, "- N/A -   "
1.79, 67.46596, 0.003121069, NaN, NaN, NaN, 0.0323506, "- N/A -   "
1.84, 68.8813, 0.003201595, NaN, NaN, NaN, 0.0335714, "- N/A -   "
1.89, 70.0608, 0.00327657, NaN, NaN, NaN, 0.03601294, "- N/A -   "
1.94, 71.3582, 0.003357093, NaN, NaN, NaN, 0.0384545, "- N/A -   "
1.99, 73.00948, 0.00344595, NaN, NaN, NaN, 0.03601294, "- N/A -   "
2.04, 74.5428, 0.00353481, NaN, NaN, NaN, 0.0335714, "- N/A -   "
2.09, 76.07612, 0.003615331, NaN, NaN, NaN, 0.0335714, "- N/A -   "
2.14, 77.25559, 0.0036903, NaN, NaN, NaN, 0.0372337, "- N/A -   "
2.19, 78.67096, 0.00376528, NaN, NaN, NaN, 0.04089605, "- N/A -   "
2.24, 80.44018, 0.00385135, NaN, NaN, NaN, 0.0396753, "- N/A -   "
2.29, 81.8555, 0.00393466, NaN, NaN, NaN, 0.0396753, "- N/A -   "
2.34, 83.50681, 0.004015183, NaN, NaN, NaN, 0.04211683, "- N/A -   "
2.39, 85.15807, 0.004104039, NaN, NaN, NaN, 0.0384545, "- N/A -   "
2.44, 86.80934, 0.00419012, NaN, NaN, NaN, 0.0372337, "- N/A -   "
2.49, 88.57855, 0.004276198, NaN, NaN, NaN, 0.03601294, "- N/A -   "
2.54, 90.34776, 0.00437061, NaN, NaN, NaN, 0.0323506, "- N/A -   "
2.59, 92.117, 0.004456687, NaN, NaN, NaN, 0.03112983, "- N/A -   "
2.64, 93.65029, 0.004534436, NaN, NaN, NaN, 0.0335714, "- N/A -   "
2.69, 95.30156, 0.00461774, NaN, NaN, NaN, 0.0335714, "- N/A -   "
2.74, 97.07077, 0.00470382, NaN, NaN, NaN, 0.03112983, "- N/A -   "
2.79, 98.83998, 0.00478434, NaN, NaN, NaN, 0.0323506, "- N/A -   "
2.84, 100.255, 0.004856539, NaN, NaN, NaN, 0.0372337, "- N/A -   "
2.89, 101.907, 0.004937065, NaN, NaN, NaN, 0.0384545, "- N/A -   "
2.94, 103.676, 0.005017591, NaN, NaN, NaN, 0.04089605, "- N/A -   "
2.99, 105.209, 0.005092563, NaN, NaN, NaN, 0.0433376, "- N/A -   "
3.04, 107.0963, 0.00517587, NaN, NaN, NaN, 0.0433376, "- N/A -   "
3.09, 108.866, 0.005261945, NaN, NaN, NaN, 0.04211683, "- N/A -   "
3.14, 111.107, 0.00535913, NaN, NaN, NaN, 0.0372337, "- N/A -   "
3.19, 112.994, 0.00544521, NaN, NaN, NaN, 0.0347922, "- N/A -   "
3.24, 114.881, 0.00553129, NaN, NaN, NaN, 0.0335714, "- N/A -   "
3.29, 116.414, 0.005609039, NaN, NaN, NaN, 0.03601294, "- N/A -   "
3.34, 118.419, 0.00569512, NaN, NaN, NaN, 0.0347922, "- N/A -   "
3.39, 120.66, 0.005792304, NaN, NaN, NaN, 0.0299091, "- N/A -   "
3.44, 122.429, 0.00587283, NaN, NaN, NaN, 0.0299091, "- N/A -   "
3.49, 124.081, 0.005947802, NaN, NaN, NaN, 0.0335714, "- N/A -   "
3.54, 125.496, 0.006014444, NaN, NaN, NaN, 0.04089605, "- N/A -   "
3.59, 127.147, 0.00608942, NaN, NaN, NaN, 0.0445584, "- N/A -   "
3.64, 128.799, 0.00616439, NaN, NaN, NaN, 0.0494415, "- N/A -   "
3.69, 130.804, 0.00625325, NaN, NaN, NaN, 0.04699994, "- N/A -   "
3.74, 133.045, 0.00635043, NaN, NaN, NaN, 0.04211683, "- N/A -   "
3.79, 135.1678, 0.006447618, NaN, NaN, NaN, 0.0347922, "- N/A -   "
3.84, 137.173, 0.006533697, NaN, NaN, NaN, 0.0335714, "- N/A -   "
3.89, 139.178, 0.006619776, NaN, NaN, NaN, 0.0323506, "- N/A -   "
3.94, 141.183, 0.00671141, NaN, NaN, NaN, 0.0286883, "- N/A -   "
3.99, 143.07, 0.006794712, NaN, NaN, NaN, 0.0286883, "- N/A -   "
4.04, 144.722, 0.00687246, NaN, NaN, NaN, 0.03112983, "- N/A -   "
4.09, 146.6087, 0.006955764, NaN, NaN, NaN, 0.0323506, "- N/A -   "
4.14, 148.26, 0.00702796, NaN, NaN, NaN, 0.03601294, "- N/A -   "
4.19, 149.675, 0.00710015, NaN, NaN, NaN, 0.04211683, "- N/A -   "
4.24, 151.445, 0.00717235, NaN, NaN, NaN, 0.04577916, "- N/A -   "
4.29, 153.332, 0.007252876, NaN, NaN, NaN, 0.04699994, "- N/A -   "
4.34, 155.219, 0.007338955, NaN, NaN, NaN, 0.04577916, "- N/A -   "
4.39, 157.224, 0.00742503, NaN, NaN, NaN, 0.04577916, "- N/A -   "
4.44, 159.229, 0.007516667, NaN, NaN, NaN, 0.04211683, "- N/A -   "
4.49, 161.4701, 0.007611077, NaN, NaN, NaN, 0.03601294, "- N/A -   "
4.54, 163.593, 0.007708263, NaN, NaN, NaN, 0.0299091, "- N/A -   "
4.59, 165.362, 0.00779157, NaN, NaN, NaN, 0.0299091, "- N/A -   "
4.64, 167.25, 0.007869315, NaN, NaN, NaN, 0.0323506, "- N/A -   "
4.69, 168.901, 0.007947063, NaN, NaN, NaN, 0.0347922, "- N/A -   "
4.74, 170.67, 0.008027589, NaN, NaN, NaN, 0.03601294, "- N/A -   "
4.79, 172.557, 0.008110893, NaN, NaN, NaN, 0.03601294, "- N/A -   "
4.84, 174.326, 0.008194195, NaN, NaN, NaN, 0.03601294, "- N/A -   "
4.89, 176.096, 0.008271944, NaN, NaN, NaN, 0.0396753, "- N/A -   "
4.94, 177.393, 0.008344139, NaN, NaN, NaN, 0.0445584, "- N/A -   "
4.99, 179.3981, 0.008424665, NaN, NaN, NaN, 0.0445584, "- N/A -   "
5.04, 181.049, 0.008507968, NaN, NaN, NaN, 0.0445584, "- N/A -   "
5.09, 183.29, 0.008605153, NaN, NaN, NaN, 0.0384545, "- N/A -   "
5.14, 185.178, 0.008699563, NaN, NaN, NaN, 0.0335714, "- N/A -   "
5.19, 187.301, 0.008793973, NaN, NaN, NaN, 0.0286883, "- N/A -   "
5.24, 188.834, 0.008871722, NaN, NaN, NaN, 0.03112983, "- N/A -   "
5.29, 190.249, 0.008946694, NaN, NaN, NaN, 0.0347922, "- N/A -   "
5.34, 192.018, 0.00903, NaN, NaN, NaN, 0.0347922, "- N/A -   "
5.39, 193.7877, 0.009121629, NaN, NaN, NaN, 0.0323506, "- N/A -   "
5.44, 195.5569, 0.00920493, NaN, NaN, NaN, 0.03112983, "- N/A -   "
5.49, 197.208, 0.009282682, NaN, NaN, NaN, 0.0347922, "- N/A -   "
5.54, 198.624, 0.009354877, NaN, NaN, NaN, 0.0384545, "- N/A -   "
5.59, 200.157, 0.00942985, NaN, NaN, NaN, 0.04211683, "- N/A -   "
5.64, 201.808, 0.009510376, NaN, NaN, NaN, 0.0433376, "- N/A -   "
5.69, 203.459, 0.009596454, NaN, NaN, NaN, 0.04211683, "- N/A -   "
5.74, 205.111, 0.009682534, NaN, NaN, NaN, 0.04089605, "- N/A -   "
5.79, 207.116, 0.009774166, NaN, NaN, NaN, 0.0384545, "- N/A -   "
5.84, 208.767, 0.009857468, NaN, NaN, NaN, 0.0372337, "- N/A -   "
5.89, 210.418, 0.00994077, NaN, NaN, NaN, 0.0372337, "- N/A -   "
5.94, 211.9516, 0.0100269, NaN, NaN, NaN, 0.03601294, "- N/A -   "
5.99, 213.839, 0.01011293, NaN, NaN, NaN, 0.0347922, "- N/A -   "
6.04, 215.372, 0.010199, NaN, NaN, NaN, 0.0335714, "- N/A -   "
6.09, 217.141, 0.0102823, NaN, NaN, NaN, 0.0335714, "- N/A -   "
6.14, 218.6746, 0.0103628, NaN, NaN, NaN, 0.0347922, "- N/A -   "
6.19, 220.444, 0.01045447, NaN, NaN, NaN, 0.03112983, "- N/A -   "
6.24, 222.095, 0.0105378, NaN, NaN, NaN, 0.0323506, "- N/A -   "
6.29, 223.3925, 0.0106044, NaN, NaN, NaN, 0.0384545, "- N/A -   "
6.34, 225.044, 0.0106849, NaN, NaN, NaN, 0.0396753, "- N/A -   "
6.39, 226.577, 0.0107655, NaN, NaN, NaN, 0.04211683, "- N/A -   "
6.44, 228.228, 0.0108404, NaN, NaN, NaN, 0.0445584, "- N/A -   "
6.49, 229.998, 0.0109321, NaN, NaN, NaN, 0.04211683, "- N/A -   "
6.54, 232.121, 0.0110293, NaN, NaN, NaN, 0.0347922, "- N/A -   "
6.59, 233.89, 0.0111237, NaN, NaN, NaN, 0.03112983, "- N/A -   "
6.64, 235.5411, 0.0112042, NaN, NaN, NaN, 0.03112983, "- N/A -   "
6.69, 237.192, 0.0112875, NaN, NaN, NaN, 0.03112983, "- N/A -   "
6.74, 238.962, 0.0113764, NaN, NaN, NaN, 0.0299091, "- N/A -   "
6.79, 240.731, 0.0114624, NaN, NaN, NaN, 0.0286883, "- N/A -   "
6.84, 242.2641, 0.01154018, NaN, NaN, NaN, 0.0299091, "- N/A -   "
6.89, 243.914, 0.01161793, NaN, NaN, NaN, 0.0323506, "- N/A -   "
6.94, 245.21, 0.0116901, NaN, NaN, NaN, 0.0384545, "- N/A -   "
6.99, 246.742, 0.0117595, NaN, NaN, NaN, 0.0433376, "- N/A -   "
7.04, 248.273, 0.01184007, NaN, NaN, NaN, 0.04577916, "- N/A -   "
7.09, 250.041, 0.0119206, NaN, NaN, NaN, 0.04577916, "- N/A -   "
7.14, 251.69, 0.0120122, NaN, NaN, NaN, 0.0433376, "- N/A -   "
7.19, 253.693, 0.0121011, NaN, NaN, NaN, 0.0396753, "- N/A -   "
7.2, 254.165, 0.0121205, NaN, NaN, NaN, 0.0384545, "- N/A -   "
7.21, 254.4, 0.01214, NaN, NaN, NaN, 0.0372337, "- N/A -   "
7.22, 254.872, 0.0121594, NaN, NaN, NaN, 0.03601294, "- N/A -   "
7.23, 255.225, 0.0121788, NaN, NaN, NaN, 0.0347922, "- N/A -   "
7.24, 255.697, 0.0121955, NaN, NaN, NaN, 0.0347922, "- N/A -   "
7.25, 255.814, 0.0122122, NaN, NaN, NaN, 0.03601294, "- N/A -   "
7.26, 256.286, 0.0122288, NaN, NaN, NaN, 0.03601294, "- N/A -   "
7.27, 256.639, 0.0122455, NaN, NaN, NaN, 0.0347922, "- N/A -   "
7.28, 256.9926, 0.0122621, NaN, NaN, NaN, 0.0347922, "- N/A -   "
7.29, 257.346, 0.0122788, NaN, NaN, NaN, 0.0347922, "- N/A -   "
7.3, 257.582, 0.0122982, NaN, NaN, NaN, 0.0335714, "- N/A -   "
7.31, 258.053, 0.0123177, NaN, NaN, NaN, 0.0335714, "- N/A -   "
7.32, 258.524, 0.0123343, NaN, NaN, NaN, 0.0323506, "- N/A -   "
7.33, 258.76, 0.012351, NaN, NaN, NaN, 0.0323506, "- N/A -   "
7.34, 259.231, 0.01237043, NaN, NaN, NaN, 0.03112983, "- N/A -   "
7.35, 259.585, 0.01238709, NaN, NaN, NaN, 0.03112983, "- N/A -   "
7.36, 259.82, 0.0124065, NaN, NaN, NaN, 0.0299091, "- N/A -   "
7.37, 260.292, 0.0124232, NaN, NaN, NaN, 0.0299091, "- N/A -   "
7.38, 260.6452, 0.0124426, NaN, NaN, NaN, 0.0286883, "- N/A -   "
7.39, 261.117, 0.0124621, NaN, NaN, NaN, 0.0286883, "- N/A -   "
7.4, 261.47, 0.0124787, NaN, NaN, NaN, 0.0274675, "- N/A -   "
7.41, 261.8235, 0.0124954, NaN, NaN, NaN, 0.0274675, "- N/A -   "
7.42, 262.059, 0.012512, NaN, NaN, NaN, 0.0274675, "- N/A -   "
7.43, 262.53, 0.0125315, NaN, NaN, NaN, 0.0274675, "- N/A -   "
7.44, 262.8839, 0.0125481, NaN, NaN, NaN, 0.0274675, "- N/A -   "
7.45, 263.12, 0.012562, NaN, NaN, NaN, 0.0274675, "- N/A -   "
7.46, 263.473, 0.0125759, NaN, NaN, NaN, 0.0286883, "- N/A -   "
7.47, 263.7087, 0.0125898, NaN, NaN, NaN, 0.0299091, "- N/A -   "
7.48, 263.944, 0.0126065, NaN, NaN, NaN, 0.03112983, "- N/A -   "
7.49, 264.18, 0.0126203, NaN, NaN, NaN, 0.03112983, "- N/A -   "
7.5, 264.533, 0.0126342, NaN, NaN, NaN, 0.0323506, "- N/A -   "
7.51, 264.887, 0.0126509, NaN, NaN, NaN, 0.0335714, "- N/A -   "
7.52, 265.24, 0.0126648, NaN, NaN, NaN, 0.0335714, "- N/A -   "
7.53, 265.5939, 0.0126814, NaN, NaN, NaN, 0.0335714, "- N/A -   "
7.54, 265.9474, 0.0126981, NaN, NaN, NaN, 0.0335714, "- N/A -   "
7.55, 266.301, 0.0127147, NaN, NaN, NaN, 0.0347922, "- N/A -   "
7.56, 266.537, 0.0127286, NaN, NaN, NaN, 0.0347922, "- N/A -   "
7.57, 266.7722, 0.0127425, NaN, NaN, NaN, 0.03601294, "- N/A -   "
7.58, 267.126, 0.0127592, NaN, NaN, NaN, 0.0372337, "- N/A -   "
7.59, 267.479, 0.0127703, NaN, NaN, NaN, 0.0384545, "- N/A -   "
7.6, 267.597, 0.0127869, NaN, NaN, NaN, 0.0396753, "- N/A -   "
7.61, 267.95, 0.0128008, NaN, NaN, NaN, 0.0396753, "- N/A -   "
7.62, 268.1861, 0.01281471, NaN, NaN, NaN, 0.04089605, "- N/A -   "
7.63, 268.54, 0.01283137, NaN, NaN, NaN, 0.04089605, "- N/A -   "
7.64, 268.893, 0.0128453, NaN, NaN, NaN, 0.04211683, "- N/A -   "
7.65, 269.247, 0.0128619, NaN, NaN, NaN, 0.04211683, "- N/A -   "
7.66, 269.482, 0.0128758, NaN, NaN, NaN, 0.0433376, "- N/A -   "
7.67, 269.836, 0.0128897, NaN, NaN, NaN, 0.0445584, "- N/A -   "
7.68, 270.189, 0.0129091, NaN, NaN, NaN, 0.0445584, "- N/A -   "
7.69, 270.5426, 0.01292578, NaN, NaN, NaN, 0.0445584, "- N/A -   "
7.7, 270.8961, 0.01294244, NaN, NaN, NaN, 0.0433376, "- N/A -   "
7.71, 271.25, 0.0129619, NaN, NaN, NaN, 0.0433376, "- N/A -   "
7.72, 271.7209, 0.0129785, NaN, NaN, NaN, 0.0433376, "- N/A -   "
7.73, 271.9565, 0.0129924, NaN, NaN, NaN, 0.0433376, "- N/A -   "
7.74, 272.31, 0.0130091, NaN, NaN, NaN, 0.0433376, "- N/A -   "
7.75, 272.663, 0.0130257, NaN, NaN, NaN, 0.0433376, "- N/A -   "
7.76, 273.017, 0.0130424, NaN, NaN, NaN, 0.0433376, "- N/A -   "
7.77, 273.37, 0.0130591, NaN, NaN, NaN, 0.0433376, "- N/A -   "
7.78, 273.842, 0.0130757, NaN, NaN, NaN, 0.0433376, "- N/A -   "
7.79, 274.0774, 0.0130924, NaN, NaN, NaN, 0.0433376, "- N/A -   "
7.8, 274.431, 0.013109, NaN, NaN, NaN, 0.0433376, "- N/A -   "
7.81, 274.784, 0.0131285, NaN, NaN, NaN, 0.0433376, "- N/A -   "
7.82, 275.256, 0.0131451, NaN, NaN, NaN, 0.04211683, "- N/A -   "
7.83, 275.609, 0.0131646, NaN, NaN, NaN, 0.04089605, "- N/A -   "
7.84, 276.08, 0.013184, NaN, NaN, NaN, 0.0396753, "- N/A -   "
7.85, 276.3161, 0.0132035, NaN, NaN, NaN, 0.0396753, "- N/A -   "
7.86, 276.9052, 0.0132229, NaN, NaN, NaN, 0.0384545, "- N/A -   "
7.87, 277.377, 0.0132396, NaN, NaN, NaN, 0.0372337, "- N/A -   "
7.88, 277.73, 0.0132618, NaN, NaN, NaN, 0.0347922, "- N/A -   "
7.89, 278.2013, 0.0132812, NaN, NaN, NaN, 0.0335714, "- N/A -   "
7.9, 278.555, 0.0133006, NaN, NaN, NaN, 0.0323506, "- N/A -   "
7.91, 279.0261, 0.0133201, NaN, NaN, NaN, 0.03112983, "- N/A -   "
7.92, 279.38, 0.0133395, NaN, NaN, NaN, 0.0299091, "- N/A -   "
7.93, 279.733, 0.0133562, NaN, NaN, NaN, 0.0299091, "- N/A -   "
7.94, 280.087, 0.0133756, NaN, NaN, NaN, 0.0299091, "- N/A -   "
7.95, 280.322, 0.0133923, NaN, NaN, NaN, 0.0299091, "- N/A -   "
7.96, 280.7935, 0.0134089, NaN, NaN, NaN, 0.0286883, "- N/A -   "
7.97, 281.147, 0.0134284, NaN, NaN, NaN, 0.0286883, "- N/A -   "
7.98, 281.5, 0.013445, NaN, NaN, NaN, 0.0274675, "- N/A -   "
[...]
17.45, 651.2972, 0.0292059, NaN, NaN, NaN, 0.0384545, "- N/A -   "
17.67, 661.3511, 0.0295946, NaN, NaN, NaN, 0.0286883, "- N/A -   "
17.89, 669.512, 0.0299195, NaN, NaN, NaN, 0.04699994, "- N/A -   "
18.11, 679.448, 0.0303055, NaN, NaN, NaN, 0.0384545, "- N/A -   "
18.33, 689.2653, 0.0306887, NaN, NaN, NaN, 0.0323506, "- N/A -   "
18.55, 698.2547, 0.03103298, NaN, NaN, NaN, 0.04089605, "- N/A -   "
18.77, 708.3086, 0.03141617, NaN, NaN, NaN, 0.0347922, "- N/A -   "
18.99, 717.5344, 0.03177437, NaN, NaN, NaN, 0.0372337, "- N/A -   "
19.21, 726.997, 0.0321381, NaN, NaN, NaN, 0.0384545, "- N/A -   "
19.43, 736.8143, 0.0325102, NaN, NaN, NaN, 0.0372337, "- N/A -   "
19.65, 746.632, 0.0328823, NaN, NaN, NaN, 0.0335714, "- N/A -   "
19.87, 756.2123, 0.0332516, NaN, NaN, NaN, 0.0335714, "- N/A -   "
20.09, 765.32, 0.0335931, NaN, NaN, NaN, 0.0433376, "- N/A -   "
20.31, 775.3738, 0.03398189, NaN, NaN, NaN, 0.0335714, "- N/A -   "
20.53, 785.1911, 0.034354, NaN, NaN, NaN, 0.03112983, "- N/A -   "
20.75, 793.826, 0.0346872, NaN, NaN, NaN, 0.04577916, "- N/A -   "
20.97, 804.234, 0.03508426, NaN, NaN, NaN, 0.0323506, "- N/A -   "
21.19, 813.5785, 0.03544246, NaN, NaN, NaN, 0.03601294, "- N/A -   "
21.41, 822.686, 0.0357923, NaN, NaN, NaN, 0.0433376, "- N/A -   "
21.63, 833.4497, 0.0361922, NaN, NaN, NaN, 0.0299091, "- N/A -   "
21.85, 842.5573, 0.0365421, NaN, NaN, NaN, 0.0372337, "- N/A -   "
22.07, 851.9015, 0.0368919, NaN, NaN, NaN, 0.0445584, "- N/A -   "
22.29, 862.547, 0.03729178, NaN, NaN, NaN, 0.03112983, "- N/A -   "
22.51, 872.246, 0.0376528, NaN, NaN, NaN, 0.0323506, "- N/A -   "
22.73, 881.4717, 0.03799707, NaN, NaN, NaN, 0.04211683, "- N/A -   "
22.95, 891.4073, 0.03837471, NaN, NaN, NaN, 0.0372337, "- N/A -   "
23.17, 901.698, 0.0387523, NaN, NaN, NaN, 0.0323506, "- N/A -   "
23.39, 910.8053, 0.0390994, NaN, NaN, NaN, 0.04089605, "- N/A -   "
23.61, 921.332, 0.0394799, NaN, NaN, NaN, 0.0347922, "- N/A -   "
23.83, 931.268, 0.0398547, NaN, NaN, NaN, 0.03112983, "- N/A -   "
24.05, 940.021, 0.0401907, NaN, NaN, NaN, 0.04577916, "- N/A -   "
24.27, 950.666, 0.04057945, NaN, NaN, NaN, 0.03601294, "- N/A -   "
24.49, 960.9565, 0.0409626, NaN, NaN, NaN, 0.0274675, "- N/A -   "
24.71, 969.7092, 0.0412931, NaN, NaN, NaN, 0.0445584, "- N/A -   "
24.93, 979.7631, 0.0416679, NaN, NaN, NaN, 0.0396753, "- N/A -   "
25.15, 990.2901, 0.0420539, NaN, NaN, NaN, 0.0323506, "- N/A -   "
25.37, 999.871, 0.042401, NaN, NaN, NaN, 0.0396753, "- N/A -   "
25.59, 1009.81, 0.0427731, NaN, NaN, NaN, 0.0372337, "- N/A -   "
25.81, 1020.63, 0.0431618, NaN, NaN, NaN, 0.0274675, "- N/A -   "
26.03, 1029.81, 0.04350615, NaN, NaN, NaN, 0.0384545, "- N/A -   "
26.25, 1039.12, 0.04385324, NaN, NaN, NaN, 0.0482207, "- N/A -   "
26.47, 1050.33, 0.0442531, NaN, NaN, NaN, 0.0335714, "- N/A -   "
26.69, 1060.22, 0.04461685, NaN, NaN, NaN, 0.0335714, "- N/A -   "
26.91, 1069.53, 0.0449584, NaN, NaN, NaN, 0.04577916, "- N/A -   "
27.13, 1080.5, 0.0453555, NaN, NaN, NaN, 0.0323506, "- N/A -   "
27.35, 1090.633, 0.0457192, NaN, NaN, NaN, 0.0323506, "- N/A -   "
27.57, 1099.7, 0.04605798, NaN, NaN, NaN, 0.0445584, "- N/A -   "
27.79, 1110.43, 0.0464495, NaN, NaN, NaN, 0.0335714, "- N/A -   "
28.01, 1120.33, 0.04681048, NaN, NaN, NaN, 0.03601294, "- N/A -   "
28.23, 1129.63, 0.0471576, NaN, NaN, NaN, 0.0445584, "- N/A -   "
28.45, 1141.08, 0.04756576, NaN, NaN, NaN, 0.0274675, "- N/A -   "
28.67, 1150.5, 0.0479129, NaN, NaN, NaN, 0.0347922, "- N/A -   "
28.89, 1159.92, 0.04825717, NaN, NaN, NaN, 0.0445584, "- N/A -   "
29.11, 1170.77, 0.04864869, NaN, NaN, NaN, 0.0335714, "- N/A -   "
29.33, 1181.03, 0.049018, NaN, NaN, NaN, 0.0323506, "- N/A -   "
29.55, 1190.69, 0.0493706, NaN, NaN, NaN, 0.0384545, "- N/A -   "
29.77, 1200.94, 0.0497427, NaN, NaN, NaN, 0.03601294, "- N/A -   "
29.99, 1211.2, 0.0501148, NaN, NaN, NaN, 0.0335714, "- N/A -   "
30.21, 1220.98, 0.0504675, NaN, NaN, NaN, 0.0396753, "- N/A -   "
30.43, 1231.35, 0.0508423, NaN, NaN, NaN, 0.0372337, "- N/A -   "
30.65, 1241.96, 0.0512172, NaN, NaN, NaN, 0.0323506, "- N/A -   "
30.87, 1251.38, 0.0515615, NaN, NaN, NaN, 0.0433376, "- N/A -   "
31.09, 1262.12, 0.0519447, NaN, NaN, NaN, 0.03601294, "- N/A -   "
31.31, 1273.09, 0.05233622, NaN, NaN, NaN, 0.0262467, "- N/A -   "
31.53, 1281.67, 0.05264999, NaN, NaN, NaN, 0.0482207, "- N/A -   "
31.75, 1292.41, 0.0530332, NaN, NaN, NaN, 0.04211683, "- N/A -   "
31.97, 1303.14, 0.05341915, NaN, NaN, NaN, 0.0335714, "- N/A -   "
32.19, 1313.038, 0.05376902, NaN, NaN, NaN, 0.04089605, "- N/A -   "
32.41, 1323.65, 0.05414666, NaN, NaN, NaN, 0.0347922, "- N/A -   "
32.63, 1333.91, 0.05451319, NaN, NaN, NaN, 0.0347922, "- N/A -   "
32.85, 1343.8, 0.05487139, NaN, NaN, NaN, 0.0384545, "- N/A -   "
33.07, 1354.18, 0.0552407, NaN, NaN, NaN, 0.0372337, "- N/A -   "
33.29, 1364.32, 0.0556045, NaN, NaN, NaN, 0.0384545, "- N/A -   "
33.51, 1374.81, 0.0559821, NaN, NaN, NaN, 0.0335714, "- N/A -   "
33.73, 1384.47, 0.0563292, NaN, NaN, NaN, 0.0433376, "- N/A -   "
33.95, 1395.44, 0.0567179, NaN, NaN, NaN, 0.0323506, "- N/A -   "
34.17, 1405.58, 0.0570845, NaN, NaN, NaN, 0.0323506, "- N/A -   "
34.39, 1414.64, 0.0574149, NaN, NaN, NaN, 0.0482207, "- N/A -   "
34.61, 1425.97, 0.05781753, NaN, NaN, NaN, 0.0335714, "- N/A -   "
34.83, 1435.99, 0.0581785, NaN, NaN, NaN, 0.0347922, "- N/A -   "
35.05, 1445.65, 0.0585284, NaN, NaN, NaN, 0.0433376, "- N/A -   "
35.27, 1456.86, 0.0589282, NaN, NaN, NaN, 0.0274675, "- N/A -   "
35.49, 1466.63, 0.0592809, NaN, NaN, NaN, 0.0347922, "- N/A -   "
35.71, 1475.936, 0.05961686, NaN, NaN, NaN, 0.0482207, "- N/A -   "
35.93, 1487.62, 0.060025, NaN, NaN, NaN, 0.0299091, "- N/A -   "
36.15, 1497.52, 0.06038602, NaN, NaN, NaN, 0.0323506, "- N/A -   "
36.37, 1507.18, 0.0607359, NaN, NaN, NaN, 0.0396753, "- N/A -   "
36.59, 1517.555, 0.061108, NaN, NaN, NaN, 0.0372337, "- N/A -   "
36.81, 1528.17, 0.0614884, NaN, NaN, NaN, 0.03112983, "- N/A -   "
37.03, 1537.59, 0.0618299, NaN, NaN, NaN, 0.04211683, "- N/A -   "
37.25, 1548.08, 0.0622048, NaN, NaN, NaN, 0.0384545, "- N/A -   "
37.47, 1558.697, 0.0625852, NaN, NaN, NaN, 0.0323506, "- N/A -   "
37.69, 1567.88, 0.0629295, NaN, NaN, NaN, 0.0433376, "- N/A -   "
37.91, 1578.85, 0.0633155, NaN, NaN, NaN, 0.0335714, "- N/A -   "
38.13, 1589.46, 0.06369591, NaN, NaN, NaN, 0.0286883, "- N/A -   "
38.35, 1598.53, 0.06402634, NaN, NaN, NaN, 0.0433376, "- N/A -   "
38.57, 1608.9, 0.06439843, NaN, NaN, NaN, 0.04089605, "- N/A -   "
38.79, 1619.52, 0.0647844, NaN, NaN, NaN, 0.0323506, "- N/A -   "
39.01, 1629.41, 0.06513704, NaN, NaN, NaN, 0.0384545, "- N/A -   "
39.23, 1640.03, 0.0655175, NaN, NaN, NaN, 0.0323506, "- N/A -   "
39.45, 1649.92, 0.0658812, NaN, NaN, NaN, 0.0347922, "- N/A -   "
39.67, 1659.82, 0.06623664, NaN, NaN, NaN, 0.0384545, "- N/A -   "
39.89, 1669.84, 0.06660039, NaN, NaN, NaN, 0.04089605, "- N/A -   "
40.11, 1680.21, 0.06698081, NaN, NaN, NaN, 0.0347922, "- N/A -   "
40.33, 1690.47, 0.06735289, NaN, NaN, NaN, 0.0323506, "- N/A -   "
40.55, 1699.65, 0.0676917, NaN, NaN, NaN, 0.0445584, "- N/A -   "
40.77, 1710.5, 0.06808595, NaN, NaN, NaN, 0.0323506, "- N/A -   "
40.99, 1720.4, 0.06844693, NaN, NaN, NaN, 0.0347922, "- N/A -   "
41.21, 1729.47, 0.06878847, NaN, NaN, NaN, 0.04699994, "- N/A -   "
41.43, 1740.437, 0.06918555, NaN, NaN, NaN, 0.0323506, "- N/A -   "
41.65, 1749.86, 0.06954375, NaN, NaN, NaN, 0.03601294, "- N/A -   "
41.87, 1759.28, 0.0698964, NaN, NaN, NaN, 0.0433376, "- N/A -   "
42.09, 1770.37, 0.07029625, NaN, NaN, NaN, 0.0274675, "- N/A -   "
42.31, 1779.31, 0.0706406, NaN, NaN, NaN, 0.0384545, "- N/A -   "
42.53, 1788.61, 0.07098766, NaN, NaN, NaN, 0.04699994, "- N/A -   "
42.75, 1799.59, 0.0713875, NaN, NaN, NaN, 0.0323506, "- N/A -   "
42.97, 1809.48, 0.07175404, NaN, NaN, NaN, 0.03112983, "- N/A -   "
43.19, 1818.547, 0.07209836, NaN, NaN, NaN, 0.04211683, "- N/A -   "
43.41, 1829.04, 0.07248433, NaN, NaN, NaN, 0.0335714, "- N/A -   "
43.63, 1839.18, 0.07285641, NaN, NaN, NaN, 0.0299091, "- N/A -   "
43.85, 1848.12, 0.07319795, NaN, NaN, NaN, 0.04089605, "- N/A -   "
44.07, 1858.26, 0.07357, NaN, NaN, NaN, 0.0384545, "- N/A -   "
44.29, 1868.63, 0.07396156, NaN, NaN, NaN, 0.0274675, "- N/A -   "
44.51, 1877.219, 0.07429477, NaN, NaN, NaN, 0.0433376, "- N/A -   "
44.73, 1887.71, 0.07467797, NaN, NaN, NaN, 0.03601294, "- N/A -   "
44.95, 1898.21, 0.0750723, NaN, NaN, NaN, 0.0250259, "- N/A -   "
45.17, 1906.078, 0.07538326, NaN, NaN, NaN, 0.0482207, "- N/A -   "
45.39, 1916.57, 0.075772, NaN, NaN, NaN, 0.0396753, "- N/A -   "
45.561, 1924.92, 0.076083, NaN, NaN, NaN, 0.0274675, "- N/A -   "