File: 2_Tensile_Data/Hamel_ForceTest_Bolt9_Test5.csv
Time, Load (lb), Position (in), AxialStrain (in), TransverseStrain (in), Auxiliary (), Control Out (V), Stress (psi)
0.0, 1.53332, 0.0, NaN, NaN, NaN, 0.100714, "- N/A -   "
0.01, 2.005107, 2.2214e-05, NaN, NaN, NaN, 0.1092596, "- N/A -   "
0.02, 2.59484, 5.27583e-05, NaN, NaN, NaN, 0.112922, "- N/A -   "
0.03, 3.18458, 8.33026e-05, NaN, NaN, NaN, 0.106818, "- N/A -   "
0.04, 3.774319, 0.000113847, NaN, NaN, NaN, 0.100714, "- N/A -   "
0.05, 4.36406, 0.000144391, NaN, NaN, NaN, 0.09461027, "- N/A -   "
0.06, 4.83585, 0.000172159, NaN, NaN, NaN, 0.0897272, "- N/A -   "
0.07, 5.425584, 0.000199926, NaN, NaN, NaN, 0.084844, "- N/A -   "
0.08, 5.897373, 0.000227694, NaN, NaN, NaN, 0.0799609, "- N/A -   "
0.09, 6.487111, 0.000255461, NaN, NaN, NaN, 0.0762986, "- N/A -   "
0.1, 6.9589, 0.000280452, NaN, NaN, NaN, 0.07141549, "- N/A -   "
0.11, 7.430691, 0.000308219, NaN, NaN, NaN, 0.06653238, "- N/A -   "
0.12, 8.020428, 0.000335987, NaN, NaN, NaN, 0.06287005, "- N/A -   "
0.13, 8.492218, 0.000358201, NaN, NaN, NaN, 0.0592077, "- N/A -   "
0.14, 8.964007, 0.000383192, NaN, NaN, NaN, 0.0555454, "- N/A -   "
0.15, 9.31785, 4.081825E-4, NaN, NaN, NaN, 0.0531038, "- N/A -   "
0.16, 9.78964, 4.276198E-4, NaN, NaN, NaN, 0.05066227, "- N/A -   "
0.17, 10.26143, 0.000449834, NaN, NaN, NaN, 0.0482207, "- N/A -   "
0.18, 10.6153, 4.720478E-4, NaN, NaN, NaN, 0.04577916, "- N/A -   "
0.19, 10.8512, 0.000491485, NaN, NaN, NaN, 0.0445584, "- N/A -   "
0.2, 11.4409, 0.000510922, NaN, NaN, NaN, 0.0433376, "- N/A -   "
0.21, 11.6768, 0.00053036, NaN, NaN, NaN, 0.0433376, "- N/A -   "
0.22, 12.0306, 5.470201E-4, NaN, NaN, NaN, 0.04211683, "- N/A -   "
0.23, 12.2665, 5.664574E-4, NaN, NaN, NaN, 0.04089605, "- N/A -   "
0.24, 12.7383, 5.858946E-4, NaN, NaN, NaN, 0.0396753, "- N/A -   "
0.25, 13.09217, 6.053319E-4, NaN, NaN, NaN, 0.0384545, "- N/A -   "
0.26, 13.446, 0.000624769, NaN, NaN, NaN, 0.0372337, "- N/A -   "
0.27, 13.7999, 6.442064E-4, NaN, NaN, NaN, 0.03601294, "- N/A -   "
0.28, 14.1537, 6.636437E-4, NaN, NaN, NaN, 0.0347922, "- N/A -   "
0.29, 14.3896, 6.830809E-4, NaN, NaN, NaN, 0.0347922, "- N/A -   "
0.3, 14.7434, 6.997415E-4, NaN, NaN, NaN, 0.0335714, "- N/A -   "
0.31, 15.0973, 0.000716402, NaN, NaN, NaN, 0.0335714, "- N/A -   "
0.32, 15.4511, 0.000733062, NaN, NaN, NaN, 0.0335714, "- N/A -   "
0.33, 15.805, 0.0007525, NaN, NaN, NaN, 0.0335714, "- N/A -   "
0.34, 16.0409, 7.691603E-4, NaN, NaN, NaN, 0.0323506, "- N/A -   "
0.35, 16.3947, 0.000785821, NaN, NaN, NaN, 0.0335714, "- N/A -   "
0.36, 16.6306, 0.000802481, NaN, NaN, NaN, 0.0335714, "- N/A -   "
0.37, 16.86649, 8.16365E-4, NaN, NaN, NaN, 0.0335714, "- N/A -   "
0.38, 17.1024, 8.358023E-4, NaN, NaN, NaN, 0.0335714, "- N/A -   "
0.39, 17.4562, 8.524628E-4, NaN, NaN, NaN, 0.0323506, "- N/A -   "
0.4, 17.8101, 8.691233E-4, NaN, NaN, NaN, 0.0335714, "- N/A -   "
0.41, 18.046, 8.830071E-4, NaN, NaN, NaN, 0.0335714, "- N/A -   "
0.42, 18.2819, 8.968908E-4, NaN, NaN, NaN, 0.0347922, "- N/A -   "
0.46, 19.2254, 9.524259E-4, NaN, NaN, NaN, 0.0396753, "- N/A -   "
0.5, 20.169, 0.00101074, NaN, NaN, NaN, 0.0433376, "- N/A -   "
0.54, 21.1126, 0.00107183, NaN, NaN, NaN, 0.04699994, "- N/A -   "
0.58, 22.29207, 0.00113847, NaN, NaN, NaN, 0.04699994, "- N/A -   "
0.62, 23.3536, 0.00120789, NaN, NaN, NaN, 0.0445584, "- N/A -   "
0.66, 24.769, 0.00128564, NaN, NaN, NaN, 0.0396753, "- N/A -   "
0.7, 25.8305, 0.00135783, NaN, NaN, NaN, 0.0372337, "- N/A -   "
0.74, 27.1279, 0.0014328, NaN, NaN, NaN, 0.0335714, "- N/A -   "
0.78, 28.1894, 0.001499446, NaN, NaN, NaN, 0.0335714, "- N/A -   "
0.82, 29.251, 0.00156886, NaN, NaN, NaN, 0.0323506, "- N/A -   "
0.86, 30.5484, 0.00164384, NaN, NaN, NaN, 0.0286883, "- N/A -   "
0.9, 31.6099, 0.00171326, NaN, NaN, NaN, 0.0274675, "- N/A -   "
0.94, 32.67145, 0.00177712, NaN, NaN, NaN, 0.0299091, "- N/A -   "
0.98, 33.49708, 0.00183821, NaN, NaN, NaN, 0.03112983, "- N/A -   "
1.02, 34.4407, 0.0018993, NaN, NaN, NaN, 0.0347922, "- N/A -   "
1.06, 35.50219, 0.00196039, NaN, NaN, NaN, 0.03601294, "- N/A -   "
1.1, 36.32782, 0.0020187, NaN, NaN, NaN, 0.0396753, "- N/A -   "
1.14, 37.15345, 0.00207701, NaN, NaN, NaN, 0.0433376, "- N/A -   "
1.18, 38.215, 0.002138099, NaN, NaN, NaN, 0.04577916, "- N/A -   "
1.22, 39.2765, 0.002204741, NaN, NaN, NaN, 0.04577916, "- N/A -   "
1.26, 40.456, 0.002271383, NaN, NaN, NaN, 0.04577916, "- N/A -   "
1.3, 41.51751, 0.002340802, NaN, NaN, NaN, 0.04577916, "- N/A -   "
1.34, 42.697, 0.002413, NaN, NaN, NaN, 0.0433376, "- N/A -   "
1.38, 43.87646, 0.002485193, NaN, NaN, NaN, 0.0396753, "- N/A -   "
1.42, 45.17388, 0.00256572, NaN, NaN, NaN, 0.0335714, "- N/A -   "
1.46, 46.4713, 0.00264347, NaN, NaN, NaN, 0.0286883, "- N/A -   "
1.5, 47.4149, 0.00271011, NaN, NaN, NaN, 0.0286883, "- N/A -   "
1.54, 48.47641, 0.00277675, NaN, NaN, NaN, 0.0286883, "- N/A -   "
1.58, 49.6559, 0.00284062, NaN, NaN, NaN, 0.0299091, "- N/A -   "
1.62, 50.5995, 0.00290448, NaN, NaN, NaN, 0.0323506, "- N/A -   "
1.66, 51.66099, 0.00296279, NaN, NaN, NaN, 0.0347922, "- N/A -   "
1.7, 52.6046, 0.00302388, NaN, NaN, NaN, 0.0372337, "- N/A -   "
1.74, 53.6661, 0.00309052, NaN, NaN, NaN, 0.0372337, "- N/A -   "
1.78, 54.8456, 0.003157167, NaN, NaN, NaN, 0.0372337, "- N/A -   "
1.82, 55.9071, 0.00322103, NaN, NaN, NaN, 0.0384545, "- N/A -   "
1.86, 56.85068, 0.00328212, NaN, NaN, NaN, 0.04089605, "- N/A -   "
1.9, 57.91221, 0.00334321, NaN, NaN, NaN, 0.0433376, "- N/A -   "
1.94, 58.9737, 0.0034043, NaN, NaN, NaN, 0.04577916, "- N/A -   "
1.98, 60.27116, 0.00348205, NaN, NaN, NaN, 0.04211683, "- N/A -   "
2.02, 61.56858, 0.00355702, NaN, NaN, NaN, 0.0372337, "- N/A -   "
2.06, 62.98395, 0.00362921, NaN, NaN, NaN, 0.0347922, "- N/A -   "
2.1, 64.16342, 0.00370696, NaN, NaN, NaN, 0.03112983, "- N/A -   "
2.14, 65.22495, 0.003773606, NaN, NaN, NaN, 0.0299091, "- N/A -   "
2.18, 66.2865, 0.00383469, NaN, NaN, NaN, 0.0335714, "- N/A -   "
2.22, 67.46596, 0.00389856, NaN, NaN, NaN, 0.0347922, "- N/A -   "
2.26, 68.52748, 0.00395687, NaN, NaN, NaN, 0.0372337, "- N/A -   "
2.3, 69.8249, 0.00402907, NaN, NaN, NaN, 0.0347922, "- N/A -   "
2.34, 71.12233, 0.004104039, NaN, NaN, NaN, 0.03112983, "- N/A -   "
2.38, 72.3018, 0.0041679, NaN, NaN, NaN, 0.0323506, "- N/A -   "
2.42, 73.36333, 0.004226216, NaN, NaN, NaN, 0.03601294, "- N/A -   "
2.46, 74.3069, 0.00429008, NaN, NaN, NaN, 0.0372337, "- N/A -   "
2.5, 75.36844, 0.00435117, NaN, NaN, NaN, 0.04089605, "- N/A -   "
2.54, 76.5479, 0.00441504, NaN, NaN, NaN, 0.04211683, "- N/A -   "
2.58, 77.72738, 0.004484454, NaN, NaN, NaN, 0.0396753, "- N/A -   "
2.62, 78.90686, 0.004553873, NaN, NaN, NaN, 0.0396753, "- N/A -   "
2.66, 80.20428, 0.004620515, NaN, NaN, NaN, 0.0396753, "- N/A -   "
2.7, 81.38376, 0.004687157, NaN, NaN, NaN, 0.0384545, "- N/A -   "
2.74, 82.68118, 0.004756576, NaN, NaN, NaN, 0.0372337, "- N/A -   "
2.78, 83.86065, 0.004825995, NaN, NaN, NaN, 0.0372337, "- N/A -   "
2.82, 85.04012, 0.00488986, NaN, NaN, NaN, 0.0372337, "- N/A -   "
2.86, 86.33755, 0.00496206, NaN, NaN, NaN, 0.03601294, "- N/A -   "
2.9, 87.75292, 0.005034251, NaN, NaN, NaN, 0.0323506, "- N/A -   "
2.94, 88.9324, 0.00510367, NaN, NaN, NaN, 0.03112983, "- N/A -   "
2.98, 90.11186, 0.005167535, NaN, NaN, NaN, 0.0323506, "- N/A -   "
3.02, 91.2913, 0.005234177, NaN, NaN, NaN, 0.0323506, "- N/A -   "
3.06, 92.47082, 0.00529804, NaN, NaN, NaN, 0.0335714, "- N/A -   "
3.1, 93.65029, 0.00536191, NaN, NaN, NaN, 0.0347922, "- N/A -   "
3.14, 94.9477, 0.00542855, NaN, NaN, NaN, 0.0347922, "- N/A -   "
3.18, 96.00924, 0.00549242, NaN, NaN, NaN, 0.03601294, "- N/A -   "
3.22, 97.07077, 0.0055535, NaN, NaN, NaN, 0.0384545, "- N/A -   "
3.26, 98.3682, 0.00562015, NaN, NaN, NaN, 0.0384545, "- N/A -   "
3.3, 99.42972, 0.00568123, NaN, NaN, NaN, 0.04089605, "- N/A -   "
3.34, 100.727, 0.00574232, NaN, NaN, NaN, 0.0433376, "- N/A -   "
3.38, 102.025, 0.00581174, NaN, NaN, NaN, 0.04211683, "- N/A -   "
3.42, 103.204, 0.00588116, NaN, NaN, NaN, 0.04089605, "- N/A -   "
3.46, 104.973, 0.005964463, NaN, NaN, NaN, 0.0347922, "- N/A -   "
3.5, 106.507, 0.006039435, NaN, NaN, NaN, 0.03112983, "- N/A -   "
3.54, 107.568, 0.006103301, NaN, NaN, NaN, 0.0335714, "- N/A -   "
3.58, 108.748, 0.006164389, NaN, NaN, NaN, 0.0347922, "- N/A -   "
3.62, 109.927, 0.006228254, NaN, NaN, NaN, 0.03601294, "- N/A -   "
3.66, 111.224, 0.0062949, NaN, NaN, NaN, 0.03601294, "- N/A -   "
3.7, 112.758, 0.006372645, NaN, NaN, NaN, 0.0323506, "- N/A -   "
3.74, 114.055, 0.00644206, NaN, NaN, NaN, 0.0299091, "- N/A -   "
3.78, 115.235, 0.006503153, NaN, NaN, NaN, 0.0323506, "- N/A -   "
3.82, 116.414, 0.006567018, NaN, NaN, NaN, 0.0335714, "- N/A -   "
3.86, 117.594, 0.00662533, NaN, NaN, NaN, 0.0372337, "- N/A -   "
3.9, 118.537, 0.00668087, NaN, NaN, NaN, 0.04211683, "- N/A -   "
3.94, 119.599, 0.00673918, NaN, NaN, NaN, 0.04577916, "- N/A -   "
3.98, 121.014, 0.006805819, NaN, NaN, NaN, 0.04577916, "- N/A -   "
4.02, 122.312, 0.00687524, NaN, NaN, NaN, 0.04577916, "- N/A -   "
4.06, 123.963, 0.00695021, NaN, NaN, NaN, 0.04089605, "- N/A -   "
4.1, 125.26, 0.00702241, NaN, NaN, NaN, 0.0384545, "- N/A -   "
4.14, 126.676, 0.00709182, NaN, NaN, NaN, 0.0372337, "- N/A -   "
4.18, 127.973, 0.00716124, NaN, NaN, NaN, 0.03601294, "- N/A -   "
4.22, 129.27, 0.007230662, NaN, NaN, NaN, 0.0347922, "- N/A -   "
4.26, 130.804, 0.00730563, NaN, NaN, NaN, 0.03112983, "- N/A -   "
4.3, 132.219, 0.00737783, NaN, NaN, NaN, 0.0299091, "- N/A -   "
4.34, 133.634, 0.00744447, NaN, NaN, NaN, 0.0286883, "- N/A -   "
4.38, 134.932, 0.007511114, NaN, NaN, NaN, 0.0286883, "- N/A -   "
4.42, 136.229, 0.007577756, NaN, NaN, NaN, 0.0299091, "- N/A -   "
4.46, 137.173, 0.007630514, NaN, NaN, NaN, 0.0347922, "- N/A -   "
4.5, 138.116, 0.00768327, NaN, NaN, NaN, 0.04089605, "- N/A -   "
4.54, 139.414, 0.00774436, NaN, NaN, NaN, 0.0433376, "- N/A -   "
4.58, 140.711, 0.007811003, NaN, NaN, NaN, 0.0433376, "- N/A -   "
4.62, 142.1267, 0.007880422, NaN, NaN, NaN, 0.04211683, "- N/A -   "
4.66, 143.424, 0.007947064, NaN, NaN, NaN, 0.04211683, "- N/A -   "
4.7, 144.604, 0.008010929, NaN, NaN, NaN, 0.0433376, "- N/A -   "
4.74, 146.019, 0.008080348, NaN, NaN, NaN, 0.04211683, "- N/A -   "
4.78, 147.552, 0.008152544, NaN, NaN, NaN, 0.0396753, "- N/A -   "
4.82, 149.0856, 0.008233069, NaN, NaN, NaN, 0.0335714, "- N/A -   "
4.86, 150.737, 0.008310818, NaN, NaN, NaN, 0.0286883, "- N/A -   "
4.9, 152.034, 0.008380237, NaN, NaN, NaN, 0.0286883, "- N/A -   "
4.94, 153.332, 0.008441325, NaN, NaN, NaN, 0.0299091, "- N/A -   "
4.98, 154.393, 0.008505192, NaN, NaN, NaN, 0.0323506, "- N/A -   "
5.02, 155.691, 0.00856628, NaN, NaN, NaN, 0.0335714, "- N/A -   "
5.06, 156.988, 0.008630144, NaN, NaN, NaN, 0.0347922, "- N/A -   "
5.1, 158.2855, 0.008694011, NaN, NaN, NaN, 0.03601294, "- N/A -   "
5.14, 159.465, 0.00876065, NaN, NaN, NaN, 0.03601294, "- N/A -   "
5.18, 160.7624, 0.008824518, NaN, NaN, NaN, 0.0372337, "- N/A -   "
5.22, 162.06, 0.008888382, NaN, NaN, NaN, 0.0384545, "- N/A -   "
5.26, 163.2393, 0.008949472, NaN, NaN, NaN, 0.04211683, "- N/A -   "
5.3, 164.419, 0.009007783, NaN, NaN, NaN, 0.0445584, "- N/A -   "
5.34, 165.7162, 0.009074425, NaN, NaN, NaN, 0.04577916, "- N/A -   "
5.38, 167.014, 0.009141067, NaN, NaN, NaN, 0.0445584, "- N/A -   "
5.42, 168.783, 0.00922437, NaN, NaN, NaN, 0.0372337, "- N/A -   "
5.46, 170.316, 0.009302119, NaN, NaN, NaN, 0.0335714, "- N/A -   "
5.5, 171.732, 0.009374314, NaN, NaN, NaN, 0.0299091, "- N/A -   "
5.54, 173.029, 0.009440956, NaN, NaN, NaN, 0.0299091, "- N/A -   "
5.58, 174.09, 0.009496491, NaN, NaN, NaN, 0.0347922, "- N/A -   "
5.62, 175.27, 0.009560356, NaN, NaN, NaN, 0.03601294, "- N/A -   "
5.66, 176.6853, 0.009624222, NaN, NaN, NaN, 0.0372337, "- N/A -   "
5.7, 177.983, 0.00969364, NaN, NaN, NaN, 0.03601294, "- N/A -   "
5.74, 179.516, 0.009765836, NaN, NaN, NaN, 0.0335714, "- N/A -   "
5.78, 181.049, 0.009838033, NaN, NaN, NaN, 0.03112983, "- N/A -   "
5.82, 182.1109, 0.009901897, NaN, NaN, NaN, 0.0323506, "- N/A -   "
5.86, 183.29, 0.009960209, NaN, NaN, NaN, 0.03601294, "- N/A -   "
5.9, 184.47, 0.0100157, NaN, NaN, NaN, 0.04089605, "- N/A -   "
5.94, 185.649, 0.0100796, NaN, NaN, NaN, 0.0433376, "- N/A -   "
5.98, 187.183, 0.010149, NaN, NaN, NaN, 0.04089605, "- N/A -   "
5.99, 187.536, 0.0101712, NaN, NaN, NaN, 0.0396753, "- N/A -   "
6, 187.89, 0.0101879, NaN, NaN, NaN, 0.0384545, "- N/A -   "
6.01, 188.3621, 0.0102046, NaN, NaN, NaN, 0.0384545, "- N/A -   "
6.02, 188.598, 0.0102212, NaN, NaN, NaN, 0.0384545, "- N/A -   "
6.03, 188.952, 0.0102379, NaN, NaN, NaN, 0.0396753, "- N/A -   "
6.04, 189.188, 0.0102545, NaN, NaN, NaN, 0.0396753, "- N/A -   "
6.05, 189.5416, 0.0102712, NaN, NaN, NaN, 0.0396753, "- N/A -   "
6.06, 189.895, 0.0102879, NaN, NaN, NaN, 0.0384545, "- N/A -   "
6.07, 190.249, 0.0103017, NaN, NaN, NaN, 0.0396753, "- N/A -   "
6.08, 190.603, 0.0103212, NaN, NaN, NaN, 0.0396753, "- N/A -   "
6.09, 190.957, 0.0103378, NaN, NaN, NaN, 0.0396753, "- N/A -   "
6.1, 191.311, 0.0103545, NaN, NaN, NaN, 0.0384545, "- N/A -   "
6.11, 191.547, 0.0103739, NaN, NaN, NaN, 0.0384545, "- N/A -   "
6.12, 191.901, 0.0103906, NaN, NaN, NaN, 0.0372337, "- N/A -   "
6.13, 192.372, 0.0104073, NaN, NaN, NaN, 0.0372337, "- N/A -   "
6.14, 192.726, 0.0104267, NaN, NaN, NaN, 0.0372337, "- N/A -   "
6.15, 192.962, 0.0104434, NaN, NaN, NaN, 0.03601294, "- N/A -   "
6.16, 193.434, 0.0104628, NaN, NaN, NaN, 0.03601294, "- N/A -   "
6.17, 193.67, 0.0104795, NaN, NaN, NaN, 0.03601294, "- N/A -   "
6.18, 194.142, 0.0104961, NaN, NaN, NaN, 0.03601294, "- N/A -   "
6.19, 194.259, 0.01051, NaN, NaN, NaN, 0.03601294, "- N/A -   "
6.2, 194.613, 0.0105267, NaN, NaN, NaN, 0.03601294, "- N/A -   "
6.21, 195.085, 0.0105461, NaN, NaN, NaN, 0.03601294, "- N/A -   "
6.22, 195.321, 0.01056, NaN, NaN, NaN, 0.03601294, "- N/A -   "
6.23, 195.675, 0.0105794, NaN, NaN, NaN, 0.0347922, "- N/A -   "
6.24, 196.147, 0.0105961, NaN, NaN, NaN, 0.0347922, "- N/A -   "
6.25, 196.5, 0.0106127, NaN, NaN, NaN, 0.0347922, "- N/A -   "
6.26, 196.736, 0.0106294, NaN, NaN, NaN, 0.0347922, "- N/A -   "
6.27, 197.208, 0.0106488, NaN, NaN, NaN, 0.0335714, "- N/A -   "
6.28, 197.444, 0.0106655, NaN, NaN, NaN, 0.0335714, "- N/A -   "
6.29, 197.798, 0.0106849, NaN, NaN, NaN, 0.0323506, "- N/A -   "
6.3, 198.152, 0.0107016, NaN, NaN, NaN, 0.0323506, "- N/A -   "
6.31, 198.506, 0.0107183, NaN, NaN, NaN, 0.0323506, "- N/A -   "
6.32, 198.859, 0.0107349, NaN, NaN, NaN, 0.0323506, "- N/A -   "
6.33, 199.213, 0.0107516, NaN, NaN, NaN, 0.0323506, "- N/A -   "
6.34, 199.567, 0.01077102, NaN, NaN, NaN, 0.0323506, "- N/A -   "
6.35, 199.803, 0.0107877, NaN, NaN, NaN, 0.0323506, "- N/A -   "
6.36, 200.157, 0.0108043, NaN, NaN, NaN, 0.0323506, "- N/A -   "
6.37, 200.5107, 0.0108182, NaN, NaN, NaN, 0.0323506, "- N/A -   "
6.38, 200.865, 0.0108377, NaN, NaN, NaN, 0.0323506, "- N/A -   "
6.39, 201.1, 0.0108515, NaN, NaN, NaN, 0.0323506, "- N/A -   "
6.4, 201.336, 0.0108682, NaN, NaN, NaN, 0.0323506, "- N/A -   "
6.41, 201.808, 0.0108849, NaN, NaN, NaN, 0.0335714, "- N/A -   "
6.42, 202.162, 0.0108988, NaN, NaN, NaN, 0.0335714, "- N/A -   "
6.43, 202.398, 0.0109154, NaN, NaN, NaN, 0.0335714, "- N/A -   "
6.44, 202.7517, 0.0109321, NaN, NaN, NaN, 0.0335714, "- N/A -   "
6.45, 203.106, 0.0109487, NaN, NaN, NaN, 0.0335714, "- N/A -   "
6.46, 203.459, 0.0109654, NaN, NaN, NaN, 0.0335714, "- N/A -   "
6.47, 203.695, 0.0109821, NaN, NaN, NaN, 0.0335714, "- N/A -   "
6.48, 204.167, 0.0110015, NaN, NaN, NaN, 0.0335714, "- N/A -   "
6.49, 204.521, 0.0110182, NaN, NaN, NaN, 0.0323506, "- N/A -   "
6.5, 204.875, 0.0110348, NaN, NaN, NaN, 0.0323506, "- N/A -   "
6.51, 205.111, 0.0110515, NaN, NaN, NaN, 0.0335714, "- N/A -   "
6.52, 205.465, 0.0110654, NaN, NaN, NaN, 0.0335714, "- N/A -   "
6.53, 205.818, 0.0110848, NaN, NaN, NaN, 0.0335714, "- N/A -   "
6.54, 206.172, 0.0111015, NaN, NaN, NaN, 0.0335714, "- N/A -   "
6.55, 206.408, 0.0111153, NaN, NaN, NaN, 0.0335714, "- N/A -   "
6.56, 206.644, 0.011132, NaN, NaN, NaN, 0.0335714, "- N/A -   "
6.57, 206.9978, 0.0111487, NaN, NaN, NaN, 0.0347922, "- N/A -   "
6.58, 207.352, 0.0111625, NaN, NaN, NaN, 0.0347922, "- N/A -   "
6.59, 207.588, 0.0111764, NaN, NaN, NaN, 0.03601294, "- N/A -   "
6.6, 207.941, 0.0111903, NaN, NaN, NaN, 0.0372337, "- N/A -   "
6.61, 208.295, 0.0112042, NaN, NaN, NaN, 0.0384545, "- N/A -   "
6.62, 208.4132, 0.0112209, NaN, NaN, NaN, 0.0384545, "- N/A -   "
6.63, 208.767, 0.0112375, NaN, NaN, NaN, 0.0396753, "- N/A -   "
6.64, 209.121, 0.0112514, NaN, NaN, NaN, 0.0396753, "- N/A -   "
6.65, 209.357, 0.0112653, NaN, NaN, NaN, 0.04089605, "- N/A -   "
6.66, 209.711, 0.0112819, NaN, NaN, NaN, 0.04089605, "- N/A -   "
6.67, 209.946, 0.0112986, NaN, NaN, NaN, 0.04211683, "- N/A -   "
6.68, 210.3, 0.0113153, NaN, NaN, NaN, 0.04211683, "- N/A -   "
6.69, 210.772, 0.0113319, NaN, NaN, NaN, 0.04211683, "- N/A -   "
6.7, 211.008, 0.0113458, NaN, NaN, NaN, 0.04211683, "- N/A -   "
6.71, 211.362, 0.0113597, NaN, NaN, NaN, 0.0433376, "- N/A -   "
6.72, 211.716, 0.0113764, NaN, NaN, NaN, 0.0433376, "- N/A -   "
6.73, 212.07, 0.011393, NaN, NaN, NaN, 0.0433376, "- N/A -   "
6.74, 212.305, 0.0114097, NaN, NaN, NaN, 0.0433376, "- N/A -   "
6.75, 212.6593, 0.0114263, NaN, NaN, NaN, 0.0445584, "- N/A -   "
6.76, 213.131, 0.011443, NaN, NaN, NaN, 0.0433376, "- N/A -   "
[...]
26.22, 1015.385, 0.04389767, NaN, NaN, NaN, 0.0347922, "- N/A -   "
26.29, 1018.49, 0.04401429, NaN, NaN, NaN, 0.0347922, "- N/A -   "
26.36, 1021.23, 0.0441198, NaN, NaN, NaN, 0.0396753, "- N/A -   "
26.43, 1024.21, 0.04423088, NaN, NaN, NaN, 0.0433376, "- N/A -   "
26.5, 1027.31, 0.04435028, NaN, NaN, NaN, 0.04211683, "- N/A -   "
26.57, 1030.77, 0.0444752, NaN, NaN, NaN, 0.0372337, "- N/A -   "
26.64, 1034.11, 0.0445974, NaN, NaN, NaN, 0.0347922, "- N/A -   "
26.71, 1037.33, 0.0447168, NaN, NaN, NaN, 0.0335714, "- N/A -   "
26.78, 1040.31, 0.0448334, NaN, NaN, NaN, 0.0335714, "- N/A -   "
26.85, 1043.53, 0.04495006, NaN, NaN, NaN, 0.0335714, "- N/A -   "
26.92, 1046.75, 0.04506946, NaN, NaN, NaN, 0.0323506, "- N/A -   "
26.99, 1049.61, 0.04518331, NaN, NaN, NaN, 0.0335714, "- N/A -   "
27, 1050.09, 0.0452, NaN, NaN, NaN, 0.0335714, "- N/A -   "
27.01, 1050.56, 0.0452166, NaN, NaN, NaN, 0.0347922, "- N/A -   "
27.05, 1052.23, 0.04528049, NaN, NaN, NaN, 0.0347922, "- N/A -   "
27.09, 1053.78, 0.045336, NaN, NaN, NaN, 0.0396753, "- N/A -   "
27.13, 1055.573, 0.0454054, NaN, NaN, NaN, 0.0384545, "- N/A -   "
27.17, 1057, 0.0454665, NaN, NaN, NaN, 0.04211683, "- N/A -   "
27.21, 1058.67, 0.0455248, NaN, NaN, NaN, 0.0445584, "- N/A -   "
27.25, 1060.58, 0.04559149, NaN, NaN, NaN, 0.0445584, "- N/A -   "
27.29, 1062.37, 0.04566091, NaN, NaN, NaN, 0.0433376, "- N/A -   "
27.33, 1064.4, 0.04573588, NaN, NaN, NaN, 0.04089605, "- N/A -   "
27.37, 1066.54, 0.0458109, NaN, NaN, NaN, 0.03601294, "- N/A -   "
27.41, 1068.45, 0.045883, NaN, NaN, NaN, 0.0335714, "- N/A -   "
27.45, 1070.241, 0.0459469, NaN, NaN, NaN, 0.0347922, "- N/A -   "
27.49, 1071.91, 0.0460136, NaN, NaN, NaN, 0.0347922, "- N/A -   "
27.53, 1073.94, 0.0460885, NaN, NaN, NaN, 0.0323506, "- N/A -   "
27.57, 1075.85, 0.04615795, NaN, NaN, NaN, 0.0299091, "- N/A -   "
27.61, 1077.75, 0.0462274, NaN, NaN, NaN, 0.0286883, "- N/A -   "
27.65, 1079.42, 0.046294, NaN, NaN, NaN, 0.0299091, "- N/A -   "
27.69, 1081.09, 0.0463579, NaN, NaN, NaN, 0.0299091, "- N/A -   "
27.73, 1082.52, 0.0464162, NaN, NaN, NaN, 0.0335714, "- N/A -   "
27.77, 1083.955, 0.04647172, NaN, NaN, NaN, 0.0384545, "- N/A -   "
27.81, 1085.386, 0.0465245, NaN, NaN, NaN, 0.0445584, "- N/A -   "
27.85, 1086.82, 0.04658, NaN, NaN, NaN, 0.05066227, "- N/A -   "
27.89, 1088.49, 0.0466411, NaN, NaN, NaN, 0.05188305, "- N/A -   "
27.93, 1090.633, 0.0467188, NaN, NaN, NaN, 0.0482207, "- N/A -   "
27.97, 1092.78, 0.0467938, NaN, NaN, NaN, 0.0433376, "- N/A -   "
28.01, 1094.93, 0.0468716, NaN, NaN, NaN, 0.0384545, "- N/A -   "
28.05, 1096.71, 0.04694377, NaN, NaN, NaN, 0.03601294, "- N/A -   "
28.09, 1098.74, 0.047016, NaN, NaN, NaN, 0.0335714, "- N/A -   "
28.13, 1100.77, 0.04709371, NaN, NaN, NaN, 0.0286883, "- N/A -   "
28.17, 1102.68, 0.0471659, NaN, NaN, NaN, 0.0274675, "- N/A -   "
28.21, 1104.47, 0.0472325, NaN, NaN, NaN, 0.0262467, "- N/A -   "
28.25, 1106.37, 0.0473047, NaN, NaN, NaN, 0.0250259, "- N/A -   "
28.29, 1108.04, 0.0473658, NaN, NaN, NaN, 0.0262467, "- N/A -   "
28.33, 1109.47, 0.04742137, NaN, NaN, NaN, 0.03112983, "- N/A -   "
28.37, 1110.67, 0.0474714, NaN, NaN, NaN, 0.0384545, "- N/A -   "
28.41, 1112.22, 0.0475297, NaN, NaN, NaN, 0.04211683, "- N/A -   "
28.45, 1113.89, 0.0475907, NaN, NaN, NaN, 0.0445584, "- N/A -   "
28.49, 1115.68, 0.04766017, NaN, NaN, NaN, 0.0445584, "- N/A -   "
28.53, 1117.46, 0.0477268, NaN, NaN, NaN, 0.0433376, "- N/A -   "
28.57, 1119.25, 0.0477935, NaN, NaN, NaN, 0.0445584, "- N/A -   "
28.61, 1121.04, 0.0478601, NaN, NaN, NaN, 0.0445584, "- N/A -   "
28.65, 1122.95, 0.0479267, NaN, NaN, NaN, 0.0433376, "- N/A -   "
28.69, 1124.86, 0.04800171, NaN, NaN, NaN, 0.0396753, "- N/A -   "
28.73, 1127.12, 0.04807946, NaN, NaN, NaN, 0.0347922, "- N/A -   "
28.77, 1129.03, 0.0481572, NaN, NaN, NaN, 0.03112983, "- N/A -   "
28.81, 1130.7, 0.0482211, NaN, NaN, NaN, 0.03112983, "- N/A -   "
28.85, 1132.61, 0.0482877, NaN, NaN, NaN, 0.03112983, "- N/A -   "
28.89, 1134.16, 0.04835158, NaN, NaN, NaN, 0.0323506, "- N/A -   "
28.93, 1135.95, 0.0484154, NaN, NaN, NaN, 0.0335714, "- N/A -   "
28.97, 1137.74, 0.04847931, NaN, NaN, NaN, 0.03601294, "- N/A -   "
29.01, 1139.65, 0.048546, NaN, NaN, NaN, 0.0347922, "- N/A -   "
29.05, 1141.32, 0.04860982, NaN, NaN, NaN, 0.03601294, "- N/A -   "
29.09, 1142.87, 0.0486709, NaN, NaN, NaN, 0.0384545, "- N/A -   "
29.13, 1144.3, 0.04872922, NaN, NaN, NaN, 0.04211683, "- N/A -   "
29.17, 1146.09, 0.0487931, NaN, NaN, NaN, 0.0433376, "- N/A -   "
29.21, 1147.64, 0.0488542, NaN, NaN, NaN, 0.04577916, "- N/A -   "
29.25, 1149.42, 0.0489208, NaN, NaN, NaN, 0.04699994, "- N/A -   "
29.29, 1151.57, 0.0489986, NaN, NaN, NaN, 0.04089605, "- N/A -   "
29.33, 1153.84, 0.0490819, NaN, NaN, NaN, 0.0335714, "- N/A -   "
29.37, 1155.983, 0.0491568, NaN, NaN, NaN, 0.0299091, "- N/A -   "
29.41, 1157.89, 0.049229, NaN, NaN, NaN, 0.0286883, "- N/A -   "
29.45, 1159.56, 0.0492957, NaN, NaN, NaN, 0.0286883, "- N/A -   "
29.49, 1160.99, 0.049354, NaN, NaN, NaN, 0.0323506, "- N/A -   "
29.53, 1162.66, 0.0494123, NaN, NaN, NaN, 0.03601294, "- N/A -   "
29.57, 1164.33, 0.0494762, NaN, NaN, NaN, 0.03601294, "- N/A -   "
29.61, 1166.358, 0.04954836, NaN, NaN, NaN, 0.0335714, "- N/A -   "
29.65, 1168.39, 0.0496233, NaN, NaN, NaN, 0.0299091, "- N/A -   "
29.69, 1170.17, 0.0496872, NaN, NaN, NaN, 0.03112983, "- N/A -   "
29.73, 1171.61, 0.04974551, NaN, NaN, NaN, 0.0347922, "- N/A -   "
29.77, 1173.04, 0.0498038, NaN, NaN, NaN, 0.0396753, "- N/A -   "
29.81, 1174.59, 0.04986213, NaN, NaN, NaN, 0.04211683, "- N/A -   "
29.85, 1176.49, 0.0499316, NaN, NaN, NaN, 0.04089605, "- N/A -   "
29.89, 1178.4, 0.0500037, NaN, NaN, NaN, 0.0396753, "- N/A -   "
29.93, 1180.072, 0.05007039, NaN, NaN, NaN, 0.0396753, "- N/A -   "
29.97, 1181.98, 0.05013703, NaN, NaN, NaN, 0.0396753, "- N/A -   "
30.01, 1183.77, 0.0502037, NaN, NaN, NaN, 0.0384545, "- N/A -   "
30.05, 1185.56, 0.0502703, NaN, NaN, NaN, 0.0384545, "- N/A -   "
30.09, 1187.47, 0.0503397, NaN, NaN, NaN, 0.0384545, "- N/A -   "
30.13, 1189.25, 0.0504092, NaN, NaN, NaN, 0.03601294, "- N/A -   "
30.17, 1191.16, 0.05048135, NaN, NaN, NaN, 0.0347922, "- N/A -   "
30.21, 1193.19, 0.05055077, NaN, NaN, NaN, 0.0323506, "- N/A -   "
30.25, 1195.1, 0.05061741, NaN, NaN, NaN, 0.0323506, "- N/A -   "
30.29, 1196.77, 0.05068405, NaN, NaN, NaN, 0.0335714, "- N/A -   "
30.33, 1198.556, 0.05075347, NaN, NaN, NaN, 0.0323506, "- N/A -   "
30.37, 1200.34, 0.0508173, NaN, NaN, NaN, 0.0323506, "- N/A -   "
30.41, 1202.01, 0.05088398, NaN, NaN, NaN, 0.0323506, "- N/A -   "
30.45, 1203.68, 0.05094784, NaN, NaN, NaN, 0.0335714, "- N/A -   "
30.49, 1205.23, 0.0510062, NaN, NaN, NaN, 0.0372337, "- N/A -   "
30.53, 1206.78, 0.05107002, NaN, NaN, NaN, 0.0396753, "- N/A -   "
30.57, 1208.454, 0.0511311, NaN, NaN, NaN, 0.04089605, "- N/A -   "
30.61, 1210, 0.0511894, NaN, NaN, NaN, 0.0445584, "- N/A -   "
30.65, 1211.91, 0.05125884, NaN, NaN, NaN, 0.0433376, "- N/A -   "
30.69, 1213.701, 0.0513283, NaN, NaN, NaN, 0.0433376, "- N/A -   "
30.73, 1215.97, 0.05140601, NaN, NaN, NaN, 0.0384545, "- N/A -   "
30.77, 1218.11, 0.0514865, NaN, NaN, NaN, 0.0335714, "- N/A -   "
30.81, 1219.9, 0.05155595, NaN, NaN, NaN, 0.03112983, "- N/A -   "
30.85, 1221.57, 0.05161982, NaN, NaN, NaN, 0.0323506, "- N/A -   "
30.89, 1223.48, 0.0516865, NaN, NaN, NaN, 0.0323506, "- N/A -   "
30.93, 1225.03, 0.0517503, NaN, NaN, NaN, 0.0347922, "- N/A -   "
30.97, 1226.938, 0.05181974, NaN, NaN, NaN, 0.0323506, "- N/A -   "
31.01, 1228.85, 0.0518947, NaN, NaN, NaN, 0.0299091, "- N/A -   "
31.05, 1230.52, 0.0519558, NaN, NaN, NaN, 0.03112983, "- N/A -   "
31.09, 1232.3, 0.0520224, NaN, NaN, NaN, 0.03112983, "- N/A -   "
31.13, 1233.62, 0.052078, NaN, NaN, NaN, 0.03601294, "- N/A -   "
31.17, 1235.05, 0.052128, NaN, NaN, NaN, 0.0433376, "- N/A -   "
31.21, 1236.6, 0.0521891, NaN, NaN, NaN, 0.04577916, "- N/A -   "
31.25, 1238.267, 0.05225292, NaN, NaN, NaN, 0.04699994, "- N/A -   "
31.29, 1239.94, 0.05231678, NaN, NaN, NaN, 0.0494415, "- N/A -   "
31.33, 1241.96, 0.0523918, NaN, NaN, NaN, 0.0445584, "- N/A -   "
31.37, 1243.99, 0.0524695, NaN, NaN, NaN, 0.04089605, "- N/A -   "
31.41, 1246.02, 0.0525389, NaN, NaN, NaN, 0.0384545, "- N/A -   "
31.45, 1247.93, 0.0526139, NaN, NaN, NaN, 0.0347922, "- N/A -   "
31.49, 1249.72, 0.0526805, NaN, NaN, NaN, 0.0347922, "- N/A -   "
31.53, 1251.27, 0.0527444, NaN, NaN, NaN, 0.03601294, "- N/A -   "
31.57, 1253.412, 0.0528166, NaN, NaN, NaN, 0.0335714, "- N/A -   "
31.61, 1255.08, 0.052886, NaN, NaN, NaN, 0.0323506, "- N/A -   "
31.625, 1255.68, 0.052911, NaN, NaN, NaN, 0.0323506, "- N/A -   "