File: 2_Tensile_Data/Hamel_ForceTest_Bolt6_Test6.csv
Time, Load (lb), Position (in), AxialStrain (in), TransverseStrain (in), Auxiliary (), Control Out (V), Stress (psi)
0.0, 1.06153, 0.0, NaN, NaN, NaN, 0.09949338, "- N/A -   "
0.01, 1.06153, 2.77675e-05, NaN, NaN, NaN, 0.105597, "- N/A -   "
0.02, 1.17947, 6.108854E-5, NaN, NaN, NaN, 0.105597, "- N/A -   "
0.03, 1.41537, 9.16328e-05, NaN, NaN, NaN, 0.0982726, "- N/A -   "
0.04, 1.53332, 0.000122177, NaN, NaN, NaN, 0.09216871, "- N/A -   "
0.05, 1.53332, 1.499446E-4, NaN, NaN, NaN, 0.0872856, "- N/A -   "
0.06, 1.65126, 0.000174935, NaN, NaN, NaN, 0.08362327, "- N/A -   "
0.07, 1.76921, 0.000199926, NaN, NaN, NaN, 0.08118171, "- N/A -   "
0.08, 1.76921, 0.00022214, NaN, NaN, NaN, 0.07751938, "- N/A -   "
0.09, 1.88716, 2.471309E-4, NaN, NaN, NaN, 0.0750778, "- N/A -   "
0.1, 2.005107, 0.000266568, NaN, NaN, NaN, 0.07263627, "- N/A -   "
0.11, 2.12305, 0.000288782, NaN, NaN, NaN, 0.07141549, "- N/A -   "
0.12, 2.241, 3.109962E-4, NaN, NaN, NaN, 0.0689739, "- N/A -   "
0.13, 2.12305, 0.000327657, NaN, NaN, NaN, 0.06775316, "- N/A -   "
0.14, 2.241, 0.000352647, NaN, NaN, NaN, 0.0640908, "- N/A -   "
0.15, 2.35895, 3.748615E-4, NaN, NaN, NaN, 0.06164927, "- N/A -   "
0.16, 2.476897, 0.000394299, NaN, NaN, NaN, 0.0604285, "- N/A -   "
0.17, 2.59484, 4.13736E-4, NaN, NaN, NaN, 0.0592077, "- N/A -   "
0.18, 2.59484, 0.00043595, NaN, NaN, NaN, 0.05676616, "- N/A -   "
0.19, 2.59484, 0.000458164, NaN, NaN, NaN, 0.0543246, "- N/A -   "
0.2, 2.712792, 4.776013E-4, NaN, NaN, NaN, 0.0531038, "- N/A -   "
0.21, 2.83074, 0.000499815, NaN, NaN, NaN, 0.05188305, "- N/A -   "
0.22, 2.83074, 5.192526E-4, NaN, NaN, NaN, 0.05066227, "- N/A -   "
0.23, 2.94869, 5.414666E-4, NaN, NaN, NaN, 0.0482207, "- N/A -   "
0.24, 2.94869, 5.636806E-4, NaN, NaN, NaN, 0.04577916, "- N/A -   "
0.25, 2.94869, 5.831179E-4, NaN, NaN, NaN, 0.0433376, "- N/A -   "
0.26, 3.06663, 5.997784E-4, NaN, NaN, NaN, 0.0433376, "- N/A -   "
0.27, 3.18458, 6.219924E-4, NaN, NaN, NaN, 0.04211683, "- N/A -   "
0.28, 3.18458, 6.414297E-4, NaN, NaN, NaN, 0.04089605, "- N/A -   "
0.29, 3.30253, 6.608669E-4, NaN, NaN, NaN, 0.0396753, "- N/A -   "
0.3, 3.30253, 0.000677527, NaN, NaN, NaN, 0.0384545, "- N/A -   "
0.31, 3.42048, 0.000694188, NaN, NaN, NaN, 0.0384545, "- N/A -   "
0.32, 3.42048, 7.136252E-4, NaN, NaN, NaN, 0.0384545, "- N/A -   "
0.33, 3.53842, 7.302857E-4, NaN, NaN, NaN, 0.0384545, "- N/A -   "
0.34, 3.65637, 0.000746946, NaN, NaN, NaN, 0.0372337, "- N/A -   "
0.35, 3.65637, 0.000763607, NaN, NaN, NaN, 0.0372337, "- N/A -   "
0.36, 3.774319, 0.000783044, NaN, NaN, NaN, 0.0372337, "- N/A -   "
0.37, 3.89227, 7.997045E-4, NaN, NaN, NaN, 0.03601294, "- N/A -   "
0.38, 3.89227, 8.16365E-4, NaN, NaN, NaN, 0.03601294, "- N/A -   "
0.39, 4.010214, 0.000833026, NaN, NaN, NaN, 0.03601294, "- N/A -   "
0.4, 4.010214, 0.000849686, NaN, NaN, NaN, 0.03601294, "- N/A -   "
0.41, 4.12816, 8.663466E-4, NaN, NaN, NaN, 0.03601294, "- N/A -   "
0.42, 4.246109, 8.830071E-4, NaN, NaN, NaN, 0.03601294, "- N/A -   "
0.43, 4.246109, 0.000902444, NaN, NaN, NaN, 0.0347922, "- N/A -   "
0.44, 4.36406, 9.218816E-4, NaN, NaN, NaN, 0.0335714, "- N/A -   "
0.45, 4.36406, 0.000941319, NaN, NaN, NaN, 0.0323506, "- N/A -   "
0.46, 4.482, 9.635329E-4, NaN, NaN, NaN, 0.03112983, "- N/A -   "
0.47, 4.59995, 9.801934E-4, NaN, NaN, NaN, 0.0299091, "- N/A -   "
0.51, 4.953794, 0.00104961, NaN, NaN, NaN, 0.0286883, "- N/A -   "
0.55, 5.18969, 0.00111348, NaN, NaN, NaN, 0.0299091, "- N/A -   "
0.59, 5.425584, 0.001174566, NaN, NaN, NaN, 0.0323506, "- N/A -   "
0.63, 5.779426, 0.0012301, NaN, NaN, NaN, 0.0384545, "- N/A -   "
0.67, 6.13327, 0.00128564, NaN, NaN, NaN, 0.04211683, "- N/A -   "
0.71, 6.369163, 0.00134395, NaN, NaN, NaN, 0.04577916, "- N/A -   "
0.75, 6.723006, 0.00140781, NaN, NaN, NaN, 0.04699994, "- N/A -   "
0.79, 7.07685, 0.00148001, NaN, NaN, NaN, 0.0445584, "- N/A -   "
0.83, 7.548638, 0.001554981, NaN, NaN, NaN, 0.04089605, "- N/A -   "
0.87, 7.90248, 0.00162995, NaN, NaN, NaN, 0.0384545, "- N/A -   "
0.91, 8.37427, 0.00169937, NaN, NaN, NaN, 0.0372337, "- N/A -   "
0.95, 8.846061, 0.00177157, NaN, NaN, NaN, 0.0335714, "- N/A -   "
0.99, 9.31785, 0.00184099, NaN, NaN, NaN, 0.0323506, "- N/A -   "
1.03, 9.78964, 0.00191596, NaN, NaN, NaN, 0.0299091, "- N/A -   "
1.07, 10.26143, 0.00198538, NaN, NaN, NaN, 0.0286883, "- N/A -   "
1.11, 10.4973, 0.00204924, NaN, NaN, NaN, 0.0286883, "- N/A -   "
1.15, 10.9691, 0.00211588, NaN, NaN, NaN, 0.0286883, "- N/A -   "
1.19, 11.323, 0.00217697, NaN, NaN, NaN, 0.03112983, "- N/A -   "
1.23, 11.6768, 0.00223251, NaN, NaN, NaN, 0.03601294, "- N/A -   "
1.27, 12.14859, 0.00229082, NaN, NaN, NaN, 0.0396753, "- N/A -   "
1.31, 12.6204, 0.00234636, NaN, NaN, NaN, 0.0445584, "- N/A -   "
1.35, 12.9742, 0.00241022, NaN, NaN, NaN, 0.04577916, "- N/A -   "
1.39, 13.6819, 0.00247686, NaN, NaN, NaN, 0.04577916, "- N/A -   "
1.43, 14.1537, 0.00254628, NaN, NaN, NaN, 0.0445584, "- N/A -   "
1.47, 14.6255, 0.0026157, NaN, NaN, NaN, 0.0433376, "- N/A -   "
1.51, 15.0973, 0.00268512, NaN, NaN, NaN, 0.04211683, "- N/A -   "
1.55, 15.687, 0.00276009, NaN, NaN, NaN, 0.0384545, "- N/A -   "
1.59, 16.3947, 0.00283784, NaN, NaN, NaN, 0.0335714, "- N/A -   "
1.63, 16.86649, 0.00291281, NaN, NaN, NaN, 0.03112983, "- N/A -   "
1.67, 17.4562, 0.00297945, NaN, NaN, NaN, 0.0299091, "- N/A -   "
1.71, 17.928, 0.0030461, NaN, NaN, NaN, 0.0299091, "- N/A -   "
1.75, 18.5178, 0.003109962, NaN, NaN, NaN, 0.03112983, "- N/A -   "
1.79, 18.9895, 0.00317383, NaN, NaN, NaN, 0.0323506, "- N/A -   "
1.83, 19.4613, 0.00323769, NaN, NaN, NaN, 0.0347922, "- N/A -   "
1.87, 19.9331, 0.003298781, NaN, NaN, NaN, 0.03601294, "- N/A -   "
1.91, 20.52286, 0.00336265, NaN, NaN, NaN, 0.0372337, "- N/A -   "
1.95, 20.99465, 0.00343207, NaN, NaN, NaN, 0.03601294, "- N/A -   "
1.99, 21.46644, 0.00349593, NaN, NaN, NaN, 0.0372337, "- N/A -   "
2.03, 21.93823, 0.00355424, NaN, NaN, NaN, 0.04089605, "- N/A -   "
2.07, 22.41, 0.003615331, NaN, NaN, NaN, 0.0433376, "- N/A -   "
2.11, 22.88181, 0.00367642, NaN, NaN, NaN, 0.04699994, "- N/A -   "
2.15, 23.5895, 0.003748615, NaN, NaN, NaN, 0.0433376, "- N/A -   "
2.19, 24.5331, 0.00383192, NaN, NaN, NaN, 0.03601294, "- N/A -   "
2.23, 25.1228, 0.00390967, NaN, NaN, NaN, 0.03112983, "- N/A -   "
2.27, 25.7125, 0.00397909, NaN, NaN, NaN, 0.0299091, "- N/A -   "
2.31, 26.4202, 0.00404573, NaN, NaN, NaN, 0.0299091, "- N/A -   "
2.35, 27.01, 0.00410959, NaN, NaN, NaN, 0.0323506, "- N/A -   "
2.39, 27.5997, 0.00417068, NaN, NaN, NaN, 0.0335714, "- N/A -   "
2.43, 28.1894, 0.004234547, NaN, NaN, NaN, 0.0347922, "- N/A -   "
2.47, 29.0151, 0.00430397, NaN, NaN, NaN, 0.0335714, "- N/A -   "
2.51, 29.84071, 0.004376161, NaN, NaN, NaN, 0.03112983, "- N/A -   "
2.55, 30.4304, 0.00444003, NaN, NaN, NaN, 0.0323506, "- N/A -   "
2.59, 31.0202, 0.00450111, NaN, NaN, NaN, 0.03601294, "- N/A -   "
2.63, 31.6099, 0.0045622, NaN, NaN, NaN, 0.0384545, "- N/A -   "
2.67, 32.08171, 0.00461774, NaN, NaN, NaN, 0.04211683, "- N/A -   "
2.71, 32.9073, 0.004678827, NaN, NaN, NaN, 0.0445584, "- N/A -   "
2.75, 33.49708, 0.00475102, NaN, NaN, NaN, 0.04211683, "- N/A -   "
2.79, 34.4407, 0.004823218, NaN, NaN, NaN, 0.04089605, "- N/A -   "
2.83, 35.2663, 0.00488986, NaN, NaN, NaN, 0.0396753, "- N/A -   "
2.87, 36.32782, 0.004964832, NaN, NaN, NaN, 0.03601294, "- N/A -   "
2.91, 37.15345, 0.00503147, NaN, NaN, NaN, 0.03601294, "- N/A -   "
2.95, 38.097, 0.005098116, NaN, NaN, NaN, 0.03601294, "- N/A -   "
2.99, 38.9227, 0.00516476, NaN, NaN, NaN, 0.03601294, "- N/A -   "
3.03, 39.8662, 0.005234177, NaN, NaN, NaN, 0.0347922, "- N/A -   "
3.07, 41.04572, 0.00530637, NaN, NaN, NaN, 0.0323506, "- N/A -   "
3.11, 41.9893, 0.00537579, NaN, NaN, NaN, 0.03112983, "- N/A -   "
3.15, 42.93288, 0.005439657, NaN, NaN, NaN, 0.0323506, "- N/A -   "
3.19, 43.9944, 0.005503522, NaN, NaN, NaN, 0.0335714, "- N/A -   "
3.23, 44.93799, 0.00556739, NaN, NaN, NaN, 0.03601294, "- N/A -   "
3.27, 45.9995, 0.00563403, NaN, NaN, NaN, 0.0347922, "- N/A -   "
3.31, 47.061, 0.00570345, NaN, NaN, NaN, 0.0335714, "- N/A -   "
3.35, 48.00462, 0.00576454, NaN, NaN, NaN, 0.0372337, "- N/A -   "
3.39, 48.83025, 0.00582285, NaN, NaN, NaN, 0.0396753, "- N/A -   "
3.43, 50.0097, 0.00588949, NaN, NaN, NaN, 0.0396753, "- N/A -   "
3.47, 50.83536, 0.00595336, NaN, NaN, NaN, 0.04211683, "- N/A -   "
3.51, 51.89689, 0.00601167, NaN, NaN, NaN, 0.0445584, "- N/A -   "
3.55, 52.9584, 0.00607831, NaN, NaN, NaN, 0.04577916, "- N/A -   "
3.59, 54.2558, 0.006156059, NaN, NaN, NaN, 0.04089605, "- N/A -   "
3.63, 55.55326, 0.006236585, NaN, NaN, NaN, 0.0347922, "- N/A -   "
3.67, 56.73273, 0.006311557, NaN, NaN, NaN, 0.03112983, "- N/A -   "
3.71, 57.6763, 0.006372645, NaN, NaN, NaN, 0.0335714, "- N/A -   "
3.75, 58.7378, 0.006439287, NaN, NaN, NaN, 0.0335714, "- N/A -   "
3.79, 59.79937, 0.006503153, NaN, NaN, NaN, 0.0347922, "- N/A -   "
3.83, 61.09679, 0.006578125, NaN, NaN, NaN, 0.0323506, "- N/A -   "
3.87, 62.1583, 0.006650321, NaN, NaN, NaN, 0.0299091, "- N/A -   "
3.91, 63.33779, 0.006716963, NaN, NaN, NaN, 0.0286883, "- N/A -   "
3.95, 64.28137, 0.006778051, NaN, NaN, NaN, 0.03112983, "- N/A -   "
3.99, 65.22495, 0.00683914, NaN, NaN, NaN, 0.0335714, "- N/A -   "
4.03, 66.2865, 0.00689745, NaN, NaN, NaN, 0.0384545, "- N/A -   "
4.07, 67.1121, 0.00695021, NaN, NaN, NaN, 0.0433376, "- N/A -   "
4.11, 68.05569, 0.00700852, NaN, NaN, NaN, 0.04699994, "- N/A -   "
4.15, 69.23517, 0.00707516, NaN, NaN, NaN, 0.0482207, "- N/A -   "
4.19, 70.29669, 0.00714181, NaN, NaN, NaN, 0.04699994, "- N/A -   "
4.23, 71.59412, 0.00721678, NaN, NaN, NaN, 0.0445584, "- N/A -   "
4.27, 72.89154, 0.00729175, NaN, NaN, NaN, 0.04089605, "- N/A -   "
4.31, 73.9531, 0.00736395, NaN, NaN, NaN, 0.0384545, "- N/A -   "
4.35, 75.13254, 0.007436142, NaN, NaN, NaN, 0.03601294, "- N/A -   "
4.39, 76.43, 0.00750278, NaN, NaN, NaN, 0.0347922, "- N/A -   "
4.43, 77.6094, 0.007577756, NaN, NaN, NaN, 0.0323506, "- N/A -   "
4.47, 78.78891, 0.007647175, NaN, NaN, NaN, 0.0299091, "- N/A -   "
4.51, 79.85043, 0.00771104, NaN, NaN, NaN, 0.03112983, "- N/A -   "
4.55, 81.14786, 0.007780459, NaN, NaN, NaN, 0.0299091, "- N/A -   "
4.59, 82.20939, 0.007844324, NaN, NaN, NaN, 0.03112983, "- N/A -   "
4.63, 83.15297, 0.007902636, NaN, NaN, NaN, 0.0347922, "- N/A -   "
4.67, 84.09654, 0.007960948, NaN, NaN, NaN, 0.0384545, "- N/A -   "
4.71, 85.15807, 0.008024813, NaN, NaN, NaN, 0.04089605, "- N/A -   "
4.75, 86.2196, 0.008088678, NaN, NaN, NaN, 0.04089605, "- N/A -   "
4.79, 87.39908, 0.008149767, NaN, NaN, NaN, 0.0433376, "- N/A -   "
4.83, 88.4606, 0.008219185, NaN, NaN, NaN, 0.0433376, "- N/A -   "
4.87, 89.52213, 0.008280274, NaN, NaN, NaN, 0.0445584, "- N/A -   "
4.91, 90.70161, 0.008349693, NaN, NaN, NaN, 0.0433376, "- N/A -   "
4.95, 91.88108, 0.008419111, NaN, NaN, NaN, 0.04211683, "- N/A -   "
4.99, 93.2965, 0.008496861, NaN, NaN, NaN, 0.0372337, "- N/A -   "
5.03, 94.7118, 0.00858294, NaN, NaN, NaN, 0.0299091, "- N/A -   "
5.07, 95.8913, 0.008652358, NaN, NaN, NaN, 0.0274675, "- N/A -   "
5.11, 96.83487, 0.00871345, NaN, NaN, NaN, 0.0299091, "- N/A -   "
5.15, 97.77845, 0.008780089, NaN, NaN, NaN, 0.0299091, "- N/A -   "
5.19, 98.83998, 0.008841177, NaN, NaN, NaN, 0.0335714, "- N/A -   "
5.23, 99.9015, 0.00890782, NaN, NaN, NaN, 0.0323506, "- N/A -   "
5.27, 100.845, 0.008971686, NaN, NaN, NaN, 0.0335714, "- N/A -   "
5.31, 102.025, 0.009041104, NaN, NaN, NaN, 0.0323506, "- N/A -   "
5.35, 102.968, 0.00910497, NaN, NaN, NaN, 0.0335714, "- N/A -   "
5.39, 103.912, 0.009163281, NaN, NaN, NaN, 0.0372337, "- N/A -   "
5.43, 104.855, 0.009218816, NaN, NaN, NaN, 0.04211683, "- N/A -   "
5.47, 105.681, 0.009279905, NaN, NaN, NaN, 0.04577916, "- N/A -   "
5.51, 106.86, 0.00934377, NaN, NaN, NaN, 0.04577916, "- N/A -   "
5.55, 107.922, 0.009410412, NaN, NaN, NaN, 0.04577916, "- N/A -   "
5.59, 109.219, 0.009488161, NaN, NaN, NaN, 0.04089605, "- N/A -   "
5.63, 110.399, 0.009563133, NaN, NaN, NaN, 0.0372337, "- N/A -   "
5.67, 111.696, 0.00963811, NaN, NaN, NaN, 0.0335714, "- N/A -   "
5.71, 112.876, 0.009710302, NaN, NaN, NaN, 0.03112983, "- N/A -   "
5.75, 113.819, 0.009774166, NaN, NaN, NaN, 0.0323506, "- N/A -   "
5.79, 114.881, 0.009835254, NaN, NaN, NaN, 0.0347922, "- N/A -   "
5.83, 115.942, 0.009901897, NaN, NaN, NaN, 0.0347922, "- N/A -   "
5.87, 117.004, 0.00996576, NaN, NaN, NaN, 0.03601294, "- N/A -   "
5.91, 118.301, 0.010038, NaN, NaN, NaN, 0.0335714, "- N/A -   "
5.95, 119.481, 0.0101102, NaN, NaN, NaN, 0.03112983, "- N/A -   "
5.99, 120.542, 0.0101768, NaN, NaN, NaN, 0.03112983, "- N/A -   "
6.03, 121.604, 0.0102351, NaN, NaN, NaN, 0.0347922, "- N/A -   "
6.07, 122.547, 0.0102962, NaN, NaN, NaN, 0.0372337, "- N/A -   "
6.11, 123.609, 0.0103601, NaN, NaN, NaN, 0.0396753, "- N/A -   "
6.15, 124.788, 0.01042948, NaN, NaN, NaN, 0.0384545, "- N/A -   "
6.19, 125.9679, 0.0104961, NaN, NaN, NaN, 0.0384545, "- N/A -   "
6.2, 126.204, 0.01051, NaN, NaN, NaN, 0.0384545, "- N/A -   "
6.21, 126.44, 0.0105267, NaN, NaN, NaN, 0.0384545, "- N/A -   "
6.23, 127.029, 0.0105572, NaN, NaN, NaN, 0.0396753, "- N/A -   "
6.25, 127.501, 0.0105905, NaN, NaN, NaN, 0.0396753, "- N/A -   "
6.27, 127.973, 0.0106266, NaN, NaN, NaN, 0.0396753, "- N/A -   "
6.29, 128.563, 0.0106572, NaN, NaN, NaN, 0.0396753, "- N/A -   "
6.31, 129.152, 0.0106905, NaN, NaN, NaN, 0.0396753, "- N/A -   "
6.33, 129.742, 0.0107238, NaN, NaN, NaN, 0.0396753, "- N/A -   "
6.35, 130.332, 0.0107571, NaN, NaN, NaN, 0.0396753, "- N/A -   "
6.37, 131.04, 0.010796, NaN, NaN, NaN, 0.0384545, "- N/A -   "
6.39, 131.511, 0.0108321, NaN, NaN, NaN, 0.0372337, "- N/A -   "
6.41, 132.101, 0.01086543, NaN, NaN, NaN, 0.03601294, "- N/A -   "
6.43, 132.573, 0.0108988, NaN, NaN, NaN, 0.03601294, "- N/A -   "
6.45, 133.163, 0.0109321, NaN, NaN, NaN, 0.03601294, "- N/A -   "
6.47, 133.87, 0.0109654, NaN, NaN, NaN, 0.03601294, "- N/A -   "
6.49, 134.46, 0.0110015, NaN, NaN, NaN, 0.0347922, "- N/A -   "
6.51, 135.05, 0.0110376, NaN, NaN, NaN, 0.0347922, "- N/A -   "
6.53, 135.64, 0.0110737, NaN, NaN, NaN, 0.0323506, "- N/A -   "
6.55, 136.229, 0.0111098, NaN, NaN, NaN, 0.03112983, "- N/A -   "
6.57, 136.819, 0.0111459, NaN, NaN, NaN, 0.0299091, "- N/A -   "
6.59, 137.527, 0.0111792, NaN, NaN, NaN, 0.0299091, "- N/A -   "
6.61, 137.999, 0.0112125, NaN, NaN, NaN, 0.03112983, "- N/A -   "
6.63, 138.588, 0.0112458, NaN, NaN, NaN, 0.03112983, "- N/A -   "
6.65, 139.06, 0.0112764, NaN, NaN, NaN, 0.03112983, "- N/A -   "
6.67, 139.532, 0.0113097, NaN, NaN, NaN, 0.03112983, "- N/A -   "
6.69, 140.1216, 0.011343, NaN, NaN, NaN, 0.03112983, "- N/A -   "
6.71, 140.829, 0.0113764, NaN, NaN, NaN, 0.03112983, "- N/A -   "
6.73, 141.183, 0.0114069, NaN, NaN, NaN, 0.0323506, "- N/A -   "
6.75, 141.773, 0.0114374, NaN, NaN, NaN, 0.0335714, "- N/A -   "
6.77, 142.245, 0.011468, NaN, NaN, NaN, 0.0347922, "- N/A -   "
6.79, 142.716, 0.0114958, NaN, NaN, NaN, 0.0372337, "- N/A -   "
6.81, 143.07, 0.01152352, NaN, NaN, NaN, 0.0396753, "- N/A -   "
6.83, 143.66, 0.0115568, NaN, NaN, NaN, 0.0396753, "- N/A -   "
6.85, 144.25, 0.0115902, NaN, NaN, NaN, 0.04089605, "- N/A -   "
6.87, 144.722, 0.0116207, NaN, NaN, NaN, 0.04089605, "- N/A -   "
6.89, 145.311, 0.0116513, NaN, NaN, NaN, 0.04211683, "- N/A -   "
6.91, 145.783, 0.0116846, NaN, NaN, NaN, 0.04211683, "- N/A -   "
6.93, 146.3728, 0.0117151, NaN, NaN, NaN, 0.0433376, "- N/A -   "
6.95, 146.963, 0.0117512, NaN, NaN, NaN, 0.0433376, "- N/A -   "
6.97, 147.67, 0.0117845, NaN, NaN, NaN, 0.04211683, "- N/A -   "
6.99, 148.142, 0.0118179, NaN, NaN, NaN, 0.04211683, "- N/A -   "
7.01, 148.732, 0.011854, NaN, NaN, NaN, 0.04089605, "- N/A -   "
7.03, 149.557, 0.0118928, NaN, NaN, NaN, 0.0384545, "- N/A -   "
7.05, 150.147, 0.0119317, NaN, NaN, NaN, 0.03601294, "- N/A -   "
7.07, 150.737, 0.0119706, NaN, NaN, NaN, 0.0335714, "- N/A -   "
7.09, 151.327, 0.0120039, NaN, NaN, NaN, 0.0335714, "- N/A -   "
7.11, 151.916, 0.0120372, NaN, NaN, NaN, 0.0335714, "- N/A -   "
7.13, 152.506, 0.01207054, NaN, NaN, NaN, 0.0335714, "- N/A -   "
7.15, 152.978, 0.0121039, NaN, NaN, NaN, 0.0335714, "- N/A -   "
7.17, 153.45, 0.0121344, NaN, NaN, NaN, 0.0347922, "- N/A -   "
7.19, 154.0394, 0.0121677, NaN, NaN, NaN, 0.0347922, "- N/A -   "
7.21, 154.629, 0.0122038, NaN, NaN, NaN, 0.0335714, "- N/A -   "
7.23, 155.337, 0.0122371, NaN, NaN, NaN, 0.0335714, "- N/A -   "
7.25, 155.809, 0.0122732, NaN, NaN, NaN, 0.0323506, "- N/A -   "
7.27, 156.5163, 0.0123121, NaN, NaN, NaN, 0.0299091, "- N/A -   "
7.29, 157.106, 0.0123482, NaN, NaN, NaN, 0.0299091, "- N/A -   "
7.31, 157.696, 0.0123843, NaN, NaN, NaN, 0.0286883, "- N/A -   "
7.33, 158.2855, 0.0124149, NaN, NaN, NaN, 0.0286883, "- N/A -   "
7.35, 158.875, 0.0124482, NaN, NaN, NaN, 0.0299091, "- N/A -   "
7.37, 159.347, 0.0124759, NaN, NaN, NaN, 0.03112983, "- N/A -   "
7.39, 159.701, 0.0125037, NaN, NaN, NaN, 0.0335714, "- N/A -   "
7.41, 160.2906, 0.012537, NaN, NaN, NaN, 0.0347922, "- N/A -   "
7.43, 160.88, 0.0125676, NaN, NaN, NaN, 0.0347922, "- N/A -   "
7.45, 161.234, 0.0125953, NaN, NaN, NaN, 0.0372337, "- N/A -   "
7.47, 161.588, 0.0126231, NaN, NaN, NaN, 0.0396753, "- N/A -   "
7.49, 162.178, 0.0126537, NaN, NaN, NaN, 0.04089605, "- N/A -   "
7.51, 162.532, 0.0126842, NaN, NaN, NaN, 0.04211683, "- N/A -   "
[...]
12.93, 327.217, 0.021717, NaN, NaN, NaN, 0.0433376, "- N/A -   "
13.11, 333.58, 0.022028, NaN, NaN, NaN, 0.0384545, "- N/A -   "
13.29, 339.824, 0.02233619, NaN, NaN, NaN, 0.03601294, "- N/A -   "
13.47, 345.9513, 0.0226389, NaN, NaN, NaN, 0.0347922, "- N/A -   "
13.65, 351.843, 0.02292764, NaN, NaN, NaN, 0.0396753, "- N/A -   "
13.83, 357.97, 0.0232192, NaN, NaN, NaN, 0.04211683, "- N/A -   "
14.01, 364.8035, 0.02353575, NaN, NaN, NaN, 0.0347922, "- N/A -   "
14.19, 371.2839, 0.023844, NaN, NaN, NaN, 0.03112983, "- N/A -   "
14.37, 376.7039, 0.0241105, NaN, NaN, NaN, 0.04577916, "- N/A -   "
14.55, 383.8913, 0.0244382, NaN, NaN, NaN, 0.0347922, "- N/A -   "
14.73, 390.725, 0.024752, NaN, NaN, NaN, 0.0274675, "- N/A -   "
14.91, 396.734, 0.0250296, NaN, NaN, NaN, 0.0372337, "- N/A -   "
15.09, 402.743, 0.02531287, NaN, NaN, NaN, 0.0445584, "- N/A -   "
15.27, 410.167, 0.0256489, NaN, NaN, NaN, 0.0299091, "- N/A -   "
15.45, 416.529, 0.0259349, NaN, NaN, NaN, 0.0347922, "- N/A -   "
15.63, 422.892, 0.0262236, NaN, NaN, NaN, 0.0396753, "- N/A -   "
15.81, 429.49, 0.02651798, NaN, NaN, NaN, 0.04211683, "- N/A -   "
15.99, 437.031, 0.0268484, NaN, NaN, NaN, 0.0286883, "- N/A -   "
16.17, 443.8648, 0.0271539, NaN, NaN, NaN, 0.0262467, "- N/A -   "
16.35, 449.52, 0.0274121, NaN, NaN, NaN, 0.04577916, "- N/A -   "
16.53, 456.59, 0.02772309, NaN, NaN, NaN, 0.04089605, "- N/A -   "
16.71, 463.895, 0.02803964, NaN, NaN, NaN, 0.0323506, "- N/A -   "
16.89, 470.729, 0.0283395, NaN, NaN, NaN, 0.0323506, "- N/A -   "
17.07, 477.092, 0.0286172, NaN, NaN, NaN, 0.04211683, "- N/A -   "
17.25, 484.1613, 0.0289282, NaN, NaN, NaN, 0.0384545, "- N/A -   "
17.43, 491.3487, 0.0292392, NaN, NaN, NaN, 0.0335714, "- N/A -   "
17.61, 498.536, 0.0295474, NaN, NaN, NaN, 0.03112983, "- N/A -   "
17.79, 504.663, 0.0298112, NaN, NaN, NaN, 0.04577916, "- N/A -   "
17.97, 512.3217, 0.0301333, NaN, NaN, NaN, 0.03601294, "- N/A -   "
18.15, 519.651, 0.0304471, NaN, NaN, NaN, 0.03112983, "- N/A -   "
18.33, 526.0378, 0.0307248, NaN, NaN, NaN, 0.0396753, "- N/A -   "
18.51, 533.135, 0.0310191, NaN, NaN, NaN, 0.04211683, "- N/A -   "
18.69, 541.178, 0.0313523, NaN, NaN, NaN, 0.0286883, "- N/A -   "
18.87, 547.92, 0.0316355, NaN, NaN, NaN, 0.03601294, "- N/A -   "
19.05, 554.78, 0.0319271, NaN, NaN, NaN, 0.0384545, "- N/A -   "
19.23, 562.2317, 0.0322242, NaN, NaN, NaN, 0.04089605, "- N/A -   "
19.41, 569.92, 0.03253798, NaN, NaN, NaN, 0.0335714, "- N/A -   "
19.59, 577.372, 0.0328434, NaN, NaN, NaN, 0.03112983, "- N/A -   "
19.77, 583.995, 0.0331183, NaN, NaN, NaN, 0.04211683, "- N/A -   "
19.95, 591.684, 0.0334293, NaN, NaN, NaN, 0.0372337, "- N/A -   "
20.13, 599.4902, 0.0337459, NaN, NaN, NaN, 0.0299091, "- N/A -   "
20.31, 606.8236, 0.0340402, NaN, NaN, NaN, 0.0323506, "- N/A -   "
20.49, 613.9204, 0.0343262, NaN, NaN, NaN, 0.0384545, "- N/A -   "
20.67, 621.49, 0.03462332, NaN, NaN, NaN, 0.0396753, "- N/A -   "
20.85, 629.297, 0.0349343, NaN, NaN, NaN, 0.0347922, "- N/A -   "
21.03, 637.103, 0.0352425, NaN, NaN, NaN, 0.03112983, "- N/A -   "
21.21, 643.727, 0.0355091, NaN, NaN, NaN, 0.04699994, "- N/A -   "
21.39, 652.3617, 0.0358395, NaN, NaN, NaN, 0.0323506, "- N/A -   "
21.57, 660.4048, 0.03615331, NaN, NaN, NaN, 0.0262467, "- N/A -   "
21.75, 667.147, 0.03641988, NaN, NaN, NaN, 0.04211683, "- N/A -   "
21.93, 674.5985, 0.0367114, NaN, NaN, NaN, 0.04577916, "- N/A -   "
22.11, 683.47, 0.0370502, NaN, NaN, NaN, 0.0299091, "- N/A -   "
22.29, 690.6847, 0.0373307, NaN, NaN, NaN, 0.0372337, "- N/A -   "
22.47, 698.1364, 0.03762221, NaN, NaN, NaN, 0.04089605, "- N/A -   "
22.65, 706.0612, 0.0379277, NaN, NaN, NaN, 0.0396753, "- N/A -   "
22.83, 714.459, 0.0382442, NaN, NaN, NaN, 0.03112983, "- N/A -   "
23.01, 722.1474, 0.0385413, NaN, NaN, NaN, 0.0323506, "- N/A -   "
23.19, 729.244, 0.0388162, NaN, NaN, NaN, 0.0433376, "- N/A -   "
23.37, 737.406, 0.03912721, NaN, NaN, NaN, 0.0384545, "- N/A -   "
23.55, 745.567, 0.0394382, NaN, NaN, NaN, 0.0347922, "- N/A -   "
23.73, 753.374, 0.0397353, NaN, NaN, NaN, 0.03601294, "- N/A -   "
23.91, 760.825, 0.0400241, NaN, NaN, NaN, 0.0396753, "- N/A -   "
24.09, 768.868, 0.0403268, NaN, NaN, NaN, 0.0384545, "- N/A -   "
24.27, 777.2663, 0.0406433, NaN, NaN, NaN, 0.03112983, "- N/A -   "
24.45, 784.9545, 0.0409432, NaN, NaN, NaN, 0.03112983, "- N/A -   "
24.63, 791.8148, 0.0412042, NaN, NaN, NaN, 0.0482207, "- N/A -   "
24.81, 800.449, 0.0415347, NaN, NaN, NaN, 0.0347922, "- N/A -   "
24.99, 808.729, 0.04184565, NaN, NaN, NaN, 0.0299091, "- N/A -   "
25.17, 816.0624, 0.0421261, NaN, NaN, NaN, 0.0384545, "- N/A -   "
25.35, 823.6324, 0.04241488, NaN, NaN, NaN, 0.0433376, "- N/A -   "
25.53, 832.6217, 0.04274809, NaN, NaN, NaN, 0.0286883, "- N/A -   "
25.71, 840.31, 0.04304243, NaN, NaN, NaN, 0.03112983, "- N/A -   "
25.89, 847.88, 0.04332566, NaN, NaN, NaN, 0.0384545, "- N/A -   "
26.07, 855.686, 0.04362277, NaN, NaN, NaN, 0.0396753, "- N/A -   "
26.25, 864.0844, 0.0439365, NaN, NaN, NaN, 0.0347922, "- N/A -   "
26.43, 872.128, 0.04423921, NaN, NaN, NaN, 0.0347922, "- N/A -   "
26.61, 879.4609, 0.0445169, NaN, NaN, NaN, 0.0433376, "- N/A -   "
26.79, 888.095, 0.0448334, NaN, NaN, NaN, 0.0372337, "- N/A -   "
26.97, 896.257, 0.0451389, NaN, NaN, NaN, 0.0335714, "- N/A -   "
27.15, 904.2999, 0.0454388, NaN, NaN, NaN, 0.0335714, "- N/A -   "
27.33, 911.752, 0.045722, NaN, NaN, NaN, 0.04089605, "- N/A -   "
27.51, 920.031, 0.04602466, NaN, NaN, NaN, 0.0396753, "- N/A -   "
27.69, 928.3109, 0.04633288, NaN, NaN, NaN, 0.03601294, "- N/A -   "
27.87, 936.4723, 0.0466411, NaN, NaN, NaN, 0.0323506, "- N/A -   "
28.05, 943.687, 0.04691322, NaN, NaN, NaN, 0.0445584, "- N/A -   "
28.23, 952.4402, 0.0472381, NaN, NaN, NaN, 0.0347922, "- N/A -   "
28.41, 960.9565, 0.04755465, NaN, NaN, NaN, 0.0274675, "- N/A -   "
28.59, 967.935, 0.04781844, NaN, NaN, NaN, 0.0433376, "- N/A -   "
28.77, 975.8598, 0.04811278, NaN, NaN, NaN, 0.04577916, "- N/A -   "
28.95, 984.967, 0.04844599, NaN, NaN, NaN, 0.0299091, "- N/A -   "
29.13, 992.8923, 0.0487348, NaN, NaN, NaN, 0.03601294, "- N/A -   "
29.31, 1000.46, 0.04902078, NaN, NaN, NaN, 0.04211683, "- N/A -   "
29.49, 1009.215, 0.04933455, NaN, NaN, NaN, 0.0347922, "- N/A -   "
29.67, 1017.65, 0.0496483, NaN, NaN, NaN, 0.0299091, "- N/A -   "
29.85, 1025.52, 0.0499371, NaN, NaN, NaN, 0.0335714, "- N/A -   "
30.03, 1032.8, 0.05020645, NaN, NaN, NaN, 0.04699994, "- N/A -   "
30.21, 1041.859, 0.05053133, NaN, NaN, NaN, 0.03601294, "- N/A -   "
30.39, 1050.21, 0.0508395, NaN, NaN, NaN, 0.0323506, "- N/A -   "
30.57, 1058.08, 0.0511367, NaN, NaN, NaN, 0.0347922, "- N/A -   "
30.75, 1065.95, 0.05141989, NaN, NaN, NaN, 0.04211683, "- N/A -   "
30.93, 1074.534, 0.0517337, NaN, NaN, NaN, 0.03601294, "- N/A -   "
31.11, 1082.88, 0.0520419, NaN, NaN, NaN, 0.0323506, "- N/A -   "
31.29, 1090.99, 0.052339, NaN, NaN, NaN, 0.0347922, "- N/A -   "
31.47, 1098.15, 0.05261112, NaN, NaN, NaN, 0.04699994, "- N/A -   "
31.65, 1107.09, 0.052936, NaN, NaN, NaN, 0.0347922, "- N/A -   "
31.83, 1115.44, 0.05324144, NaN, NaN, NaN, 0.0323506, "- N/A -   "
32.01, 1122.831, 0.05351911, NaN, NaN, NaN, 0.04211683, "- N/A -   "
32.19, 1130.94, 0.053819, NaN, NaN, NaN, 0.04211683, "- N/A -   "
32.37, 1140.12, 0.0541522, NaN, NaN, NaN, 0.0274675, "- N/A -   "
32.55, 1147.75, 0.0544354, NaN, NaN, NaN, 0.0347922, "- N/A -   "
32.73, 1155.39, 0.0547159, NaN, NaN, NaN, 0.0433376, "- N/A -   "
32.91, 1163.97, 0.0550269, NaN, NaN, NaN, 0.0384545, "- N/A -   "
33.09, 1172.32, 0.05533511, NaN, NaN, NaN, 0.0347922, "- N/A -   "
33.27, 1180.67, 0.05564333, NaN, NaN, NaN, 0.03112983, "- N/A -   "
33.45, 1188.06, 0.055921, NaN, NaN, NaN, 0.04089605, "- N/A -   "
33.63, 1196.77, 0.056232, NaN, NaN, NaN, 0.0372337, "- N/A -   "
33.81, 1205.23, 0.0565402, NaN, NaN, NaN, 0.0323506, "- N/A -   "
33.99, 1213.58, 0.05684844, NaN, NaN, NaN, 0.0286883, "- N/A -   "
34.17, 1220.5, 0.057115, NaN, NaN, NaN, 0.0433376, "- N/A -   "
34.35, 1229.08, 0.05742323, NaN, NaN, NaN, 0.0396753, "- N/A -   "
34.53, 1237.79, 0.0577426, NaN, NaN, NaN, 0.03112983, "- N/A -   "
34.71, 1245.78, 0.05803689, NaN, NaN, NaN, 0.0335714, "- N/A -   "
34.89, 1252.93, 0.05831179, NaN, NaN, NaN, 0.04577916, "- N/A -   "
35.07, 1262.12, 0.05864222, NaN, NaN, NaN, 0.0323506, "- N/A -   "
35.25, 1270.465, 0.0589504, NaN, NaN, NaN, 0.0286883, "- N/A -   "
35.43, 1277.74, 0.05921979, NaN, NaN, NaN, 0.04211683, "- N/A -   "
35.61, 1285.73, 0.0595169, NaN, NaN, NaN, 0.0445584, "- N/A -   "
35.79, 1294.79, 0.0598446, NaN, NaN, NaN, 0.03112983, "- N/A -   "
35.87, 1298.01, 0.05997506, NaN, NaN, NaN, 0.0323506, "- N/A -   "