File: 2_Tensile_Data/Hamel_ForceTest_Bolt4_Test7.csv
Time, Load (lb), Position (in), AxialStrain (in), TransverseStrain (in), Auxiliary (), Control Out (V), Stress (psi)
0.0, 7.430691, 0.0, NaN, NaN, NaN, -0.006714277, "- N/A -   "
0.01, 7.430691, 0.0, NaN, NaN, NaN, -6.103888E-4, "- N/A -   "
0.02, 7.430691, 0.0, NaN, NaN, NaN, 0.006714277, "- N/A -   "
0.03, 7.430691, 0.0, NaN, NaN, NaN, 0.01525972, "- N/A -   "
0.04, 7.548638, 2.776752E-6, NaN, NaN, NaN, 0.0335714, "- N/A -   "
0.1, 8.492218, 0.000116624, NaN, NaN, NaN, 0.100714, "- N/A -   "
0.16, 10.0255, 0.000269345, NaN, NaN, NaN, 0.07751938, "- N/A -   "
0.22, 11.4409, 0.000397076, NaN, NaN, NaN, 0.0653116, "- N/A -   "
0.28, 12.6204, 5.164758E-4, NaN, NaN, NaN, 0.05676616, "- N/A -   "
0.34, 14.0357, 6.442064E-4, NaN, NaN, NaN, 0.04577916, "- N/A -   "
0.4, 15.3332, 0.000758053, NaN, NaN, NaN, 0.0384545, "- N/A -   "
0.46, 16.5126, 0.000860793, NaN, NaN, NaN, 0.0384545, "- N/A -   "
0.52, 17.6921, 0.000969086, NaN, NaN, NaN, 0.0335714, "- N/A -   "
0.58, 18.9895, 0.00108016, NaN, NaN, NaN, 0.0286883, "- N/A -   "
0.64, 19.9331, 0.001174566, NaN, NaN, NaN, 0.03112983, "- N/A -   "
0.7, 21.1126, 0.0012662, NaN, NaN, NaN, 0.0347922, "- N/A -   "
0.76, 21.93823, 0.0013495, NaN, NaN, NaN, 0.0433376, "- N/A -   "
0.82, 22.88181, 0.00143836, NaN, NaN, NaN, 0.04699994, "- N/A -   "
0.88, 24.0613, 0.0015411, NaN, NaN, NaN, 0.04699994, "- N/A -   "
0.94, 25.3587, 0.00165217, NaN, NaN, NaN, 0.04089605, "- N/A -   "
1, 26.5382, 0.00176601, NaN, NaN, NaN, 0.0347922, "- N/A -   "
1.06, 27.7177, 0.00187153, NaN, NaN, NaN, 0.0323506, "- N/A -   "
1.12, 28.89713, 0.00197705, NaN, NaN, NaN, 0.0299091, "- N/A -   "
1.18, 29.9587, 0.002082564, NaN, NaN, NaN, 0.0274675, "- N/A -   "
1.24, 31.0202, 0.00217975, NaN, NaN, NaN, 0.0286883, "- N/A -   "
1.3, 31.9638, 0.002271383, NaN, NaN, NaN, 0.0335714, "- N/A -   "
1.36, 32.7894, 0.00235746, NaN, NaN, NaN, 0.0384545, "- N/A -   "
1.42, 33.8509, 0.00244632, NaN, NaN, NaN, 0.0433376, "- N/A -   "
1.48, 34.9125, 0.002549058, NaN, NaN, NaN, 0.0433376, "- N/A -   "
1.54, 35.97398, 0.00264347, NaN, NaN, NaN, 0.0445584, "- N/A -   "
1.6, 37.0355, 0.00274621, NaN, NaN, NaN, 0.0445584, "- N/A -   "
1.66, 38.3329, 0.00285728, NaN, NaN, NaN, 0.0384545, "- N/A -   "
1.72, 39.6304, 0.0029739, NaN, NaN, NaN, 0.03112983, "- N/A -   "
1.78, 40.8098, 0.00307664, NaN, NaN, NaN, 0.0299091, "- N/A -   "
1.84, 41.9893, 0.0031766, NaN, NaN, NaN, 0.0299091, "- N/A -   "
1.9, 43.1688, 0.00327101, NaN, NaN, NaN, 0.0323506, "- N/A -   "
1.96, 44.2303, 0.00336265, NaN, NaN, NaN, 0.03601294, "- N/A -   "
2.02, 45.5277, 0.00346539, NaN, NaN, NaN, 0.03601294, "- N/A -   "
2.08, 46.7072, 0.00355424, NaN, NaN, NaN, 0.0396753, "- N/A -   "
2.14, 47.7687, 0.00364865, NaN, NaN, NaN, 0.0433376, "- N/A -   "
2.2, 48.9482, 0.00374306, NaN, NaN, NaN, 0.0445584, "- N/A -   "
2.26, 50.2456, 0.0038458, NaN, NaN, NaN, 0.0433376, "- N/A -   "
2.32, 51.89689, 0.003965202, NaN, NaN, NaN, 0.0347922, "- N/A -   "
2.38, 53.3123, 0.00407905, NaN, NaN, NaN, 0.0299091, "- N/A -   "
2.44, 54.3738, 0.004176235, NaN, NaN, NaN, 0.0299091, "- N/A -   "
2.5, 55.43531, 0.004265091, NaN, NaN, NaN, 0.0347922, "- N/A -   "
2.56, 56.73273, 0.004362277, NaN, NaN, NaN, 0.03601294, "- N/A -   "
2.62, 58.1481, 0.004476124, NaN, NaN, NaN, 0.03112983, "- N/A -   "
2.68, 59.3276, 0.004567757, NaN, NaN, NaN, 0.0335714, "- N/A -   "
2.74, 60.3891, 0.00465939, NaN, NaN, NaN, 0.0372337, "- N/A -   "
2.8, 61.56858, 0.004756576, NaN, NaN, NaN, 0.0396753, "- N/A -   "
2.86, 62.98395, 0.00485099, NaN, NaN, NaN, 0.04089605, "- N/A -   "
2.92, 64.3993, 0.00495373, NaN, NaN, NaN, 0.0396753, "- N/A -   "
2.98, 65.81469, 0.00505924, NaN, NaN, NaN, 0.0372337, "- N/A -   "
3.04, 67.34801, 0.00516198, NaN, NaN, NaN, 0.03601294, "- N/A -   "
3.1, 68.7634, 0.005261945, NaN, NaN, NaN, 0.03601294, "- N/A -   "
3.16, 70.29669, 0.00536746, NaN, NaN, NaN, 0.0335714, "- N/A -   "
3.22, 71.71206, 0.00547298, NaN, NaN, NaN, 0.0323506, "- N/A -   "
3.28, 73.2454, 0.00557572, NaN, NaN, NaN, 0.03112983, "- N/A -   "
3.34, 74.66075, 0.00566457, NaN, NaN, NaN, 0.0347922, "- N/A -   "
3.4, 75.95817, 0.00576454, NaN, NaN, NaN, 0.0347922, "- N/A -   "
3.46, 77.13765, 0.005858946, NaN, NaN, NaN, 0.0372337, "- N/A -   "
3.52, 78.55301, 0.00595336, NaN, NaN, NaN, 0.0396753, "- N/A -   "
3.58, 79.73249, 0.00604777, NaN, NaN, NaN, 0.04211683, "- N/A -   "
3.64, 81.14786, 0.00614773, NaN, NaN, NaN, 0.0433376, "- N/A -   "
3.7, 82.56323, 0.006256022, NaN, NaN, NaN, 0.0396753, "- N/A -   "
3.76, 84.21449, 0.00636987, NaN, NaN, NaN, 0.0335714, "- N/A -   "
3.82, 85.51192, 0.006469832, NaN, NaN, NaN, 0.0335714, "- N/A -   "
3.88, 86.80934, 0.006567018, NaN, NaN, NaN, 0.0347922, "- N/A -   "
3.94, 88.10676, 0.00666698, NaN, NaN, NaN, 0.0347922, "- N/A -   "
4, 89.6401, 0.00678083, NaN, NaN, NaN, 0.0286883, "- N/A -   "
4.06, 90.81956, 0.006875238, NaN, NaN, NaN, 0.03112983, "- N/A -   "
4.12, 91.88108, 0.006961317, NaN, NaN, NaN, 0.0372337, "- N/A -   "
4.18, 93.0606, 0.007050173, NaN, NaN, NaN, 0.04211683, "- N/A -   "
4.24, 94.24, 0.007141806, NaN, NaN, NaN, 0.04577916, "- N/A -   "
4.3, 95.7733, 0.007244546, NaN, NaN, NaN, 0.04577916, "- N/A -   "
4.36, 97.30666, 0.00735839, NaN, NaN, NaN, 0.0396753, "- N/A -   "
4.42, 98.83998, 0.00746669, NaN, NaN, NaN, 0.0347922, "- N/A -   "
4.48, 100.137, 0.00756387, NaN, NaN, NaN, 0.03601294, "- N/A -   "
4.54, 101.671, 0.00767494, NaN, NaN, NaN, 0.0323506, "- N/A -   "
4.6, 103.204, 0.007780459, NaN, NaN, NaN, 0.0299091, "- N/A -   "
4.66, 104.619, 0.007883199, NaN, NaN, NaN, 0.0274675, "- N/A -   "
4.72, 105.917, 0.007974831, NaN, NaN, NaN, 0.03112983, "- N/A -   "
4.78, 106.978, 0.008058134, NaN, NaN, NaN, 0.0384545, "- N/A -   "
4.84, 108.276, 0.008149767, NaN, NaN, NaN, 0.0433376, "- N/A -   "
4.9, 109.8091, 0.008246954, NaN, NaN, NaN, 0.0433376, "- N/A -   "
4.96, 111.224, 0.008346915, NaN, NaN, NaN, 0.0433376, "- N/A -   "
5.02, 112.758, 0.008452433, NaN, NaN, NaN, 0.04089605, "- N/A -   "
5.08, 114.409, 0.00856073, NaN, NaN, NaN, 0.0384545, "- N/A -   "
5.14, 116.178, 0.008680126, NaN, NaN, NaN, 0.0286883, "- N/A -   "
5.2, 117.712, 0.00878287, NaN, NaN, NaN, 0.0286883, "- N/A -   "
5.26, 119.009, 0.008874499, NaN, NaN, NaN, 0.03112983, "- N/A -   "
5.32, 120.424, 0.008966132, NaN, NaN, NaN, 0.03601294, "- N/A -   "
5.38, 121.722, 0.009063318, NaN, NaN, NaN, 0.0372337, "- N/A -   "
5.44, 123.609, 0.009168834, NaN, NaN, NaN, 0.0347922, "- N/A -   "
5.5, 124.788, 0.00925769, NaN, NaN, NaN, 0.0384545, "- N/A -   "
5.56, 126.086, 0.00934377, NaN, NaN, NaN, 0.0445584, "- N/A -   "
5.62, 127.737, 0.009443734, NaN, NaN, NaN, 0.0445584, "- N/A -   "
5.68, 129.27, 0.009554803, NaN, NaN, NaN, 0.04089605, "- N/A -   "
5.74, 131.1576, 0.00966865, NaN, NaN, NaN, 0.0335714, "- N/A -   "
5.8, 132.9268, 0.009776942, NaN, NaN, NaN, 0.0299091, "- N/A -   "
5.86, 134.224, 0.009868576, NaN, NaN, NaN, 0.0335714, "- N/A -   "
5.92, 135.758, 0.00996576, NaN, NaN, NaN, 0.03601294, "- N/A -   "
5.98, 137.291, 0.0100629, NaN, NaN, NaN, 0.03601294, "- N/A -   "
6.04, 139.06, 0.010174, NaN, NaN, NaN, 0.03112983, "- N/A -   "
6.1, 140.475, 0.0102684, NaN, NaN, NaN, 0.0335714, "- N/A -   "
6.16, 141.891, 0.0103628, NaN, NaN, NaN, 0.0372337, "- N/A -   "
6.22, 143.424, 0.0104517, NaN, NaN, NaN, 0.04089605, "- N/A -   "
6.28, 144.957, 0.0105517, NaN, NaN, NaN, 0.04089605, "- N/A -   "
6.34, 146.6087, 0.0106488, NaN, NaN, NaN, 0.04211683, "- N/A -   "
6.4, 148.378, 0.0107571, NaN, NaN, NaN, 0.0384545, "- N/A -   "
6.46, 150.029, 0.0108627, NaN, NaN, NaN, 0.0372337, "- N/A -   "
6.52, 151.68, 0.0109654, NaN, NaN, NaN, 0.0347922, "- N/A -   "
6.58, 153.45, 0.0110765, NaN, NaN, NaN, 0.03112983, "- N/A -   "
6.64, 155.101, 0.0111764, NaN, NaN, NaN, 0.03112983, "- N/A -   "
6.7, 156.634, 0.0112681, NaN, NaN, NaN, 0.0335714, "- N/A -   "
6.76, 158.168, 0.0113652, NaN, NaN, NaN, 0.0347922, "- N/A -   "
6.82, 160.055, 0.0114735, NaN, NaN, NaN, 0.0323506, "- N/A -   "
6.88, 161.352, 0.0115624, NaN, NaN, NaN, 0.0372337, "- N/A -   "
6.94, 162.885, 0.0116568, NaN, NaN, NaN, 0.0396753, "- N/A -   "
7, 164.537, 0.0117484, NaN, NaN, NaN, 0.04211683, "- N/A -   "
7.06, 166.07, 0.0118456, NaN, NaN, NaN, 0.0433376, "- N/A -   "
7.12, 168.075, 0.0119567, NaN, NaN, NaN, 0.0384545, "- N/A -   "
7.18, 170.08, 0.01207054, NaN, NaN, NaN, 0.0323506, "- N/A -   "
7.24, 171.614, 0.0121677, NaN, NaN, NaN, 0.0335714, "- N/A -   "
7.3, 173.265, 0.01226769, NaN, NaN, NaN, 0.0347922, "- N/A -   "
7.36, 175.034, 0.0123732, NaN, NaN, NaN, 0.03112983, "- N/A -   "
7.42, 176.9212, 0.0124815, NaN, NaN, NaN, 0.0286883, "- N/A -   "
7.48, 178.455, 0.0125731, NaN, NaN, NaN, 0.03112983, "- N/A -   "
7.54, 179.988, 0.012662, NaN, NaN, NaN, 0.03601294, "- N/A -   "
7.6, 181.167, 0.0127425, NaN, NaN, NaN, 0.0445584, "- N/A -   "
7.66, 182.937, 0.0128397, NaN, NaN, NaN, 0.04699994, "- N/A -   "
7.72, 184.706, 0.01294244, NaN, NaN, NaN, 0.0445584, "- N/A -   "
7.78, 186.829, 0.0130563, NaN, NaN, NaN, 0.0384545, "- N/A -   "
7.84, 188.716, 0.0131646, NaN, NaN, NaN, 0.0347922, "- N/A -   "
7.9, 190.603, 0.0132729, NaN, NaN, NaN, 0.03112983, "- N/A -   "
7.96, 192.49, 0.0133839, NaN, NaN, NaN, 0.0262467, "- N/A -   "
7.97, 192.962, 0.0134034, NaN, NaN, NaN, 0.0262467, "- N/A -   "
7.98, 193.08, 0.01342, NaN, NaN, NaN, 0.0262467, "- N/A -   "
7.99, 193.434, 0.0134367, NaN, NaN, NaN, 0.0262467, "- N/A -   "
8, 193.67, 0.0134506, NaN, NaN, NaN, 0.0262467, "- N/A -   "
8.01, 193.7877, 0.0134672, NaN, NaN, NaN, 0.0274675, "- N/A -   "
8.02, 194.142, 0.0134811, NaN, NaN, NaN, 0.0274675, "- N/A -   "
8.03, 194.377, 0.01349779, NaN, NaN, NaN, 0.0274675, "- N/A -   "
8.04, 194.731, 0.0135172, NaN, NaN, NaN, 0.0274675, "- N/A -   "
8.05, 195.085, 0.0135339, NaN, NaN, NaN, 0.0262467, "- N/A -   "
8.06, 195.321, 0.0135478, NaN, NaN, NaN, 0.0274675, "- N/A -   "
8.07, 195.5569, 0.0135617, NaN, NaN, NaN, 0.0286883, "- N/A -   "
8.08, 195.7928, 0.0135755, NaN, NaN, NaN, 0.0299091, "- N/A -   "
8.09, 196.0287, 0.0135922, NaN, NaN, NaN, 0.03112983, "- N/A -   "
8.1, 196.265, 0.0136061, NaN, NaN, NaN, 0.03112983, "- N/A -   "
8.11, 196.618, 0.0136227, NaN, NaN, NaN, 0.03112983, "- N/A -   "
8.12, 196.854, 0.0136394, NaN, NaN, NaN, 0.03112983, "- N/A -   "
8.13, 197.208, 0.0136561, NaN, NaN, NaN, 0.03112983, "- N/A -   "
8.14, 197.444, 0.0136699, NaN, NaN, NaN, 0.0323506, "- N/A -   "
8.15, 197.68, 0.0136866, NaN, NaN, NaN, 0.0335714, "- N/A -   "
8.16, 197.916, 0.0137005, NaN, NaN, NaN, 0.0347922, "- N/A -   "
8.17, 198.27, 0.0137172, NaN, NaN, NaN, 0.03601294, "- N/A -   "
8.18, 198.506, 0.013731, NaN, NaN, NaN, 0.03601294, "- N/A -   "
8.19, 198.859, 0.0137477, NaN, NaN, NaN, 0.0372337, "- N/A -   "
8.2, 199.095, 0.0137616, NaN, NaN, NaN, 0.0372337, "- N/A -   "
8.21, 199.213, 0.0137755, NaN, NaN, NaN, 0.0384545, "- N/A -   "
8.22, 199.331, 0.0137893, NaN, NaN, NaN, 0.0396753, "- N/A -   "
8.23, 199.685, 0.0138032, NaN, NaN, NaN, 0.04089605, "- N/A -   "
8.24, 200.039, 0.0138199, NaN, NaN, NaN, 0.04211683, "- N/A -   "
8.25, 200.275, 0.0138366, NaN, NaN, NaN, 0.04211683, "- N/A -   "
8.26, 200.5107, 0.0138504, NaN, NaN, NaN, 0.0433376, "- N/A -   "
8.27, 200.7466, 0.0138643, NaN, NaN, NaN, 0.0445584, "- N/A -   "
8.28, 200.9825, 0.0138782, NaN, NaN, NaN, 0.0445584, "- N/A -   "
8.29, 201.336, 0.0138949, NaN, NaN, NaN, 0.0445584, "- N/A -   "
8.3, 201.69, 0.0139115, NaN, NaN, NaN, 0.04577916, "- N/A -   "
8.31, 201.926, 0.0139254, NaN, NaN, NaN, 0.04577916, "- N/A -   "
8.32, 202.28, 0.0139448, NaN, NaN, NaN, 0.04577916, "- N/A -   "
8.33, 202.516, 0.0139615, NaN, NaN, NaN, 0.04577916, "- N/A -   "
8.34, 202.7517, 0.0139754, NaN, NaN, NaN, 0.04577916, "- N/A -   "
8.35, 203.106, 0.0139921, NaN, NaN, NaN, 0.04577916, "- N/A -   "
8.36, 203.459, 0.0140087, NaN, NaN, NaN, 0.04577916, "- N/A -   "
8.37, 203.695, 0.0140254, NaN, NaN, NaN, 0.04577916, "- N/A -   "
8.38, 204.049, 0.0140448, NaN, NaN, NaN, 0.04577916, "- N/A -   "
8.39, 204.403, 0.0140615, NaN, NaN, NaN, 0.0445584, "- N/A -   "
8.4, 204.7568, 0.0140809, NaN, NaN, NaN, 0.0433376, "- N/A -   "
8.41, 204.9927, 0.0140976, NaN, NaN, NaN, 0.0433376, "- N/A -   "
8.42, 205.465, 0.014117, NaN, NaN, NaN, 0.0433376, "- N/A -   "
8.43, 205.818, 0.0141337, NaN, NaN, NaN, 0.04211683, "- N/A -   "
8.44, 206.054, 0.0141531, NaN, NaN, NaN, 0.04211683, "- N/A -   "
8.45, 206.526, 0.0141698, NaN, NaN, NaN, 0.04089605, "- N/A -   "
8.46, 206.88, 0.0141892, NaN, NaN, NaN, 0.0396753, "- N/A -   "
8.47, 207.116, 0.0142059, NaN, NaN, NaN, 0.0396753, "- N/A -   "
8.48, 207.4696, 0.0142225, NaN, NaN, NaN, 0.0396753, "- N/A -   "
8.49, 207.705, 0.01424196, NaN, NaN, NaN, 0.0384545, "- N/A -   "
8.5, 208.059, 0.0142614, NaN, NaN, NaN, 0.0372337, "- N/A -   "
8.51, 208.4132, 0.0142808, NaN, NaN, NaN, 0.03601294, "- N/A -   "
8.52, 208.885, 0.014303, NaN, NaN, NaN, 0.0347922, "- N/A -   "
8.53, 209.239, 0.0143225, NaN, NaN, NaN, 0.0323506, "- N/A -   "
8.54, 209.711, 0.0143419, NaN, NaN, NaN, 0.03112983, "- N/A -   "
8.55, 210.064, 0.0143614, NaN, NaN, NaN, 0.0299091, "- N/A -   "
8.56, 210.3, 0.0143808, NaN, NaN, NaN, 0.0286883, "- N/A -   "
8.57, 210.654, 0.0143975, NaN, NaN, NaN, 0.0286883, "- N/A -   "
8.58, 210.89, 0.0144141, NaN, NaN, NaN, 0.0286883, "- N/A -   "
8.59, 211.244, 0.0144308, NaN, NaN, NaN, 0.0286883, "- N/A -   "
8.6, 211.48, 0.0144474, NaN, NaN, NaN, 0.0286883, "- N/A -   "
8.61, 211.834, 0.0144641, NaN, NaN, NaN, 0.0286883, "- N/A -   "
8.62, 212.1875, 0.0144808, NaN, NaN, NaN, 0.0286883, "- N/A -   "
8.63, 212.305, 0.0144974, NaN, NaN, NaN, 0.0286883, "- N/A -   "
8.64, 212.777, 0.0145141, NaN, NaN, NaN, 0.0299091, "- N/A -   "
8.65, 213.013, 0.014528, NaN, NaN, NaN, 0.0299091, "- N/A -   "
8.66, 213.249, 0.0145418, NaN, NaN, NaN, 0.03112983, "- N/A -   "
8.67, 213.603, 0.01455851, NaN, NaN, NaN, 0.0323506, "- N/A -   "
8.68, 213.721, 0.0145724, NaN, NaN, NaN, 0.0323506, "- N/A -   "
8.69, 214.075, 0.0145891, NaN, NaN, NaN, 0.0323506, "- N/A -   "
8.7, 214.311, 0.0146057, NaN, NaN, NaN, 0.0323506, "- N/A -   "
8.71, 214.6644, 0.0146224, NaN, NaN, NaN, 0.0323506, "- N/A -   "
8.72, 215.018, 0.0146363, NaN, NaN, NaN, 0.0335714, "- N/A -   "
8.73, 215.254, 0.0146529, NaN, NaN, NaN, 0.0347922, "- N/A -   "
8.74, 215.49, 0.014664, NaN, NaN, NaN, 0.03601294, "- N/A -   "
8.75, 215.726, 0.0146807, NaN, NaN, NaN, 0.0372337, "- N/A -   "
8.76, 215.962, 0.0146973, NaN, NaN, NaN, 0.03601294, "- N/A -   "
8.77, 216.434, 0.014714, NaN, NaN, NaN, 0.0372337, "- N/A -   "
8.78, 216.67, 0.0147279, NaN, NaN, NaN, 0.0372337, "- N/A -   "
8.79, 216.905, 0.0147418, NaN, NaN, NaN, 0.0384545, "- N/A -   "
8.8, 217.259, 0.0147612, NaN, NaN, NaN, 0.0384545, "- N/A -   "
8.81, 217.613, 0.0147751, NaN, NaN, NaN, 0.0384545, "- N/A -   "
8.82, 217.849, 0.0147945, NaN, NaN, NaN, 0.0384545, "- N/A -   "
8.83, 218.085, 0.0148084, NaN, NaN, NaN, 0.0384545, "- N/A -   "
8.84, 218.557, 0.0148279, NaN, NaN, NaN, 0.0384545, "- N/A -   "
8.85, 218.793, 0.0148445, NaN, NaN, NaN, 0.0372337, "- N/A -   "
8.86, 219.1464, 0.0148612, NaN, NaN, NaN, 0.0372337, "- N/A -   "
8.87, 219.5, 0.0148806, NaN, NaN, NaN, 0.0372337, "- N/A -   "
8.88, 219.8541, 0.0148945, NaN, NaN, NaN, 0.0372337, "- N/A -   "
8.89, 220.09, 0.0149112, NaN, NaN, NaN, 0.0372337, "- N/A -   "
8.9, 220.326, 0.014925, NaN, NaN, NaN, 0.0384545, "- N/A -   "
8.91, 220.562, 0.0149389, NaN, NaN, NaN, 0.0396753, "- N/A -   "
8.92, 220.916, 0.0149556, NaN, NaN, NaN, 0.0396753, "- N/A -   "
8.93, 221.152, 0.0149695, NaN, NaN, NaN, 0.04089605, "- N/A -   "
8.94, 221.387, 0.0149861, NaN, NaN, NaN, 0.04211683, "- N/A -   "
8.95, 221.741, 0.015, NaN, NaN, NaN, 0.04211683, "- N/A -   "
8.96, 221.977, 0.0150167, NaN, NaN, NaN, 0.0433376, "- N/A -   "
8.97, 222.331, 0.0150306, NaN, NaN, NaN, 0.0433376, "- N/A -   "
8.98, 222.449, 0.0150472, NaN, NaN, NaN, 0.0433376, "- N/A -   "
8.99, 222.803, 0.0150611, NaN, NaN, NaN, 0.0445584, "- N/A -   "
9, 223.157, 0.0150778, NaN, NaN, NaN, 0.0445584, "- N/A -   "
9.01, 223.275, 0.0150916, NaN, NaN, NaN, 0.04577916, "- N/A -   "
9.02, 223.6284, 0.0151083, NaN, NaN, NaN, 0.04577916, "- N/A -   "
9.03, 223.982, 0.015125, NaN, NaN, NaN, 0.04577916, "- N/A -   "
9.04, 224.336, 0.0151416, NaN, NaN, NaN, 0.04577916, "- N/A -   "
9.05, 224.69, 0.0151583, NaN, NaN, NaN, 0.04577916, "- N/A -   "
9.06, 225.044, 0.0151777, NaN, NaN, NaN, 0.04577916, "- N/A -   "
9.07, 225.28, 0.0151944, NaN, NaN, NaN, 0.0445584, "- N/A -   "
9.08, 225.751, 0.0152138, NaN, NaN, NaN, 0.0433376, "- N/A -   "
9.09, 226.1053, 0.0152333, NaN, NaN, NaN, 0.04211683, "- N/A -   "
9.1, 226.459, 0.0152555, NaN, NaN, NaN, 0.04089605, "- N/A -   "
9.11, 226.813, 0.0152721, NaN, NaN, NaN, 0.0396753, "- N/A -   "
9.12, 227.167, 0.0152916, NaN, NaN, NaN, 0.0396753, "- N/A -   "
9.13, 227.521, 0.01531101, NaN, NaN, NaN, 0.0384545, "- N/A -   "
9.14, 227.875, 0.01532767, NaN, NaN, NaN, 0.0372337, "- N/A -   "
9.15, 228.228, 0.0153471, NaN, NaN, NaN, 0.03601294, "- N/A -   "
9.16, 228.7, 0.0153665, NaN, NaN, NaN, 0.0347922, "- N/A -   "
9.17, 229.172, 0.015386, NaN, NaN, NaN, 0.0335714, "- N/A -   "
9.18, 229.408, 0.0154054, NaN, NaN, NaN, 0.0335714, "- N/A -   "
9.19, 229.762, 0.01542208, NaN, NaN, NaN, 0.0323506, "- N/A -   "
9.2, 230.116, 0.0154415, NaN, NaN, NaN, 0.0323506, "- N/A -   "
9.21, 230.351, 0.0154582, NaN, NaN, NaN, 0.03112983, "- N/A -   "
[...]
28.77, 1020.51, 0.0480267, NaN, NaN, NaN, 0.0445584, "- N/A -   "
28.85, 1024.45, 0.0481655, NaN, NaN, NaN, 0.04211683, "- N/A -   "
28.93, 1028.03, 0.0483016, NaN, NaN, NaN, 0.04089605, "- N/A -   "
29.01, 1032.08, 0.0484488, NaN, NaN, NaN, 0.0347922, "- N/A -   "
29.09, 1036.13, 0.0485987, NaN, NaN, NaN, 0.0286883, "- N/A -   "
29.17, 1039.47, 0.0487237, NaN, NaN, NaN, 0.0323506, "- N/A -   "
29.25, 1042.69, 0.0488431, NaN, NaN, NaN, 0.0372337, "- N/A -   "
29.33, 1046.51, 0.04897913, NaN, NaN, NaN, 0.03601294, "- N/A -   "
29.41, 1049.61, 0.0491013, NaN, NaN, NaN, 0.04089605, "- N/A -   "
29.49, 1052.95, 0.0492207, NaN, NaN, NaN, 0.04699994, "- N/A -   "
29.57, 1057.12, 0.0493707, NaN, NaN, NaN, 0.04089605, "- N/A -   "
29.65, 1061.42, 0.0495289, NaN, NaN, NaN, 0.0286883, "- N/A -   "
29.73, 1065.23, 0.0496678, NaN, NaN, NaN, 0.0262467, "- N/A -   "
29.81, 1068.33, 0.0497844, NaN, NaN, NaN, 0.0335714, "- N/A -   "
29.89, 1072.03, 0.04991767, NaN, NaN, NaN, 0.0347922, "- N/A -   "
29.97, 1075.488, 0.0500482, NaN, NaN, NaN, 0.03601294, "- N/A -   "
30.05, 1078.47, 0.050162, NaN, NaN, NaN, 0.0433376, "- N/A -   "
30.13, 1081.93, 0.05028698, NaN, NaN, NaN, 0.04699994, "- N/A -   "
30.21, 1085.98, 0.0504341, NaN, NaN, NaN, 0.04089605, "- N/A -   "
30.29, 1089.92, 0.05057854, NaN, NaN, NaN, 0.0372337, "- N/A -   "
30.37, 1093.61, 0.05071182, NaN, NaN, NaN, 0.03601294, "- N/A -   "
30.45, 1097.31, 0.0508534, NaN, NaN, NaN, 0.0335714, "- N/A -   "
30.53, 1101.13, 0.0509867, NaN, NaN, NaN, 0.0323506, "- N/A -   "
30.61, 1104.347, 0.0511144, NaN, NaN, NaN, 0.03601294, "- N/A -   "
30.69, 1108.28, 0.05125329, NaN, NaN, NaN, 0.0323506, "- N/A -   "
30.77, 1111.5, 0.0513755, NaN, NaN, NaN, 0.0384545, "- N/A -   "
30.85, 1114.96, 0.0515032, NaN, NaN, NaN, 0.04089605, "- N/A -   "
30.93, 1118.3, 0.0516309, NaN, NaN, NaN, 0.0445584, "- N/A -   "
31.01, 1122.47, 0.0517781, NaN, NaN, NaN, 0.0384545, "- N/A -   "
31.09, 1126.41, 0.0519225, NaN, NaN, NaN, 0.0323506, "- N/A -   "
31.17, 1129.867, 0.052053, NaN, NaN, NaN, 0.0335714, "- N/A -   "
31.25, 1133.683, 0.05219183, NaN, NaN, NaN, 0.03112983, "- N/A -   "
31.33, 1137.38, 0.05233067, NaN, NaN, NaN, 0.0286883, "- N/A -   "
31.41, 1140.36, 0.05244174, NaN, NaN, NaN, 0.0384545, "- N/A -   "
31.49, 1143.46, 0.0525611, NaN, NaN, NaN, 0.04577916, "- N/A -   "
31.57, 1147.04, 0.05268887, NaN, NaN, NaN, 0.04699994, "- N/A -   "
31.65, 1151.09, 0.05283604, NaN, NaN, NaN, 0.04089605, "- N/A -   "
31.73, 1155.029, 0.0529832, NaN, NaN, NaN, 0.03601294, "- N/A -   "
31.81, 1158.49, 0.0531137, NaN, NaN, NaN, 0.03601294, "- N/A -   "
31.89, 1162.66, 0.05326366, NaN, NaN, NaN, 0.0286883, "- N/A -   "
31.97, 1166.12, 0.05339416, NaN, NaN, NaN, 0.0299091, "- N/A -   "
32.05, 1169.34, 0.05351356, NaN, NaN, NaN, 0.03601294, "- N/A -   "
32.13, 1172.44, 0.053633, NaN, NaN, NaN, 0.04211683, "- N/A -   "
32.21, 1176.02, 0.05376347, NaN, NaN, NaN, 0.0433376, "- N/A -   "
32.29, 1179.6, 0.0538968, NaN, NaN, NaN, 0.0433376, "- N/A -   "
32.37, 1183.65, 0.0540411, NaN, NaN, NaN, 0.0384545, "- N/A -   "
32.45, 1187.82, 0.0541966, NaN, NaN, NaN, 0.0299091, "- N/A -   "
32.53, 1191.4, 0.05432993, NaN, NaN, NaN, 0.0286883, "- N/A -   "
32.61, 1194.74, 0.0544521, NaN, NaN, NaN, 0.0335714, "- N/A -   "
32.69, 1198.08, 0.0545798, NaN, NaN, NaN, 0.03601294, "- N/A -   "
32.77, 1201.66, 0.0547131, NaN, NaN, NaN, 0.0372337, "- N/A -   "
32.85, 1204.76, 0.0548297, NaN, NaN, NaN, 0.0433376, "- N/A -   "
32.93, 1208.33, 0.05496025, NaN, NaN, NaN, 0.0445584, "- N/A -   "
33.01, 1212.63, 0.055113, NaN, NaN, NaN, 0.03601294, "- N/A -   "
33.09, 1216.56, 0.05526014, NaN, NaN, NaN, 0.03112983, "- N/A -   "
33.17, 1219.783, 0.05537954, NaN, NaN, NaN, 0.03601294, "- N/A -   "
33.25, 1223.36, 0.0555128, NaN, NaN, NaN, 0.03601294, "- N/A -   "
33.33, 1227.3, 0.05565722, NaN, NaN, NaN, 0.03112983, "- N/A -   "
33.41, 1230.52, 0.0557822, NaN, NaN, NaN, 0.0347922, "- N/A -   "
33.49, 1233.74, 0.0559016, NaN, NaN, NaN, 0.04089605, "- N/A -   "
33.57, 1237.55, 0.0560432, NaN, NaN, NaN, 0.0372337, "- N/A -   "
33.65, 1241.13, 0.0561709, NaN, NaN, NaN, 0.0396753, "- N/A -   "
33.73, 1244.83, 0.0563098, NaN, NaN, NaN, 0.0372337, "- N/A -   "
33.81, 1248.642, 0.05644859, NaN, NaN, NaN, 0.0347922, "- N/A -   "
33.89, 1252.34, 0.0565874, NaN, NaN, NaN, 0.0323506, "- N/A -   "
33.97, 1255.92, 0.0567179, NaN, NaN, NaN, 0.0335714, "- N/A -   "
34.05, 1259.26, 0.0568457, NaN, NaN, NaN, 0.03601294, "- N/A -   "
34.13, 1263.31, 0.0569873, NaN, NaN, NaN, 0.0323506, "- N/A -   "
34.21, 1266.41, 0.05710668, NaN, NaN, NaN, 0.0384545, "- N/A -   "
34.29, 1269.63, 0.0572289, NaN, NaN, NaN, 0.0433376, "- N/A -   "
34.37, 1273.09, 0.0573621, NaN, NaN, NaN, 0.0445584, "- N/A -   "
34.45, 1277.38, 0.05751486, NaN, NaN, NaN, 0.03601294, "- N/A -   "
34.53, 1280.84, 0.05764815, NaN, NaN, NaN, 0.0347922, "- N/A -   "
34.61, 1284.54, 0.0577842, NaN, NaN, NaN, 0.0335714, "- N/A -   "
34.69, 1288.472, 0.0579286, NaN, NaN, NaN, 0.0286883, "- N/A -   "
34.77, 1291.93, 0.0580536, NaN, NaN, NaN, 0.0335714, "- N/A -   "
34.85, 1295.27, 0.0581785, NaN, NaN, NaN, 0.03601294, "- N/A -   "
34.93, 1298.13, 0.0582924, NaN, NaN, NaN, 0.0445584, "- N/A -   "
35.01, 1301.83, 0.0584312, NaN, NaN, NaN, 0.0433376, "- N/A -   "
35.09, 1306, 0.0585784, NaN, NaN, NaN, 0.0372337, "- N/A -   "
35.17, 1309.94, 0.05872275, NaN, NaN, NaN, 0.0323506, "- N/A -   "
35.25, 1313.63, 0.05886159, NaN, NaN, NaN, 0.0286883, "- N/A -   "
35.33, 1317.45, 0.05900043, NaN, NaN, NaN, 0.0286883, "- N/A -   "
35.41, 1320.67, 0.0591254, NaN, NaN, NaN, 0.0323506, "- N/A -   "
35.49, 1323.65, 0.05923645, NaN, NaN, NaN, 0.04089605, "- N/A -   "
35.57, 1326.87, 0.05935585, NaN, NaN, NaN, 0.04699994, "- N/A -   "
35.65, 1330.568, 0.05949191, NaN, NaN, NaN, 0.04577916, "- N/A -   "
35.73, 1334.5, 0.0596363, NaN, NaN, NaN, 0.04211683, "- N/A -   "
35.81, 1338.92, 0.0597946, NaN, NaN, NaN, 0.0299091, "- N/A -   "
35.89, 1342.49, 0.0599279, NaN, NaN, NaN, 0.0299091, "- N/A -   "
35.97, 1345.713, 0.06005559, NaN, NaN, NaN, 0.0335714, "- N/A -   "
36.05, 1349.17, 0.0601805, NaN, NaN, NaN, 0.03601294, "- N/A -   "
36.13, 1352.63, 0.0603055, NaN, NaN, NaN, 0.0396753, "- N/A -   "
36.21, 1356.088, 0.060436, NaN, NaN, NaN, 0.04089605, "- N/A -   "
36.29, 1359.31, 0.06056374, NaN, NaN, NaN, 0.0445584, "- N/A -   "
36.37, 1363, 0.0606998, NaN, NaN, NaN, 0.04211683, "- N/A -   "
36.45, 1367.42, 0.0608553, NaN, NaN, NaN, 0.0323506, "- N/A -   "
36.53, 1370.99, 0.0609914, NaN, NaN, NaN, 0.0323506, "- N/A -   "
36.61, 1374.33, 0.0611135, NaN, NaN, NaN, 0.03601294, "- N/A -   "
36.69, 1377.911, 0.0612496, NaN, NaN, NaN, 0.0347922, "- N/A -   "
36.77, 1381.727, 0.06139121, NaN, NaN, NaN, 0.0323506, "- N/A -   "
36.85, 1384.83, 0.0615078, NaN, NaN, NaN, 0.0384545, "- N/A -   "
36.93, 1387.93, 0.0616272, NaN, NaN, NaN, 0.0445584, "- N/A -   "
37.01, 1391.625, 0.0617633, NaN, NaN, NaN, 0.0433376, "- N/A -   "
37.09, 1395.44, 0.0619049, NaN, NaN, NaN, 0.0396753, "- N/A -   "
37.17, 1399.26, 0.0620493, NaN, NaN, NaN, 0.03601294, "- N/A -   "
37.25, 1402.954, 0.0621881, NaN, NaN, NaN, 0.0323506, "- N/A -   "
37.33, 1406.53, 0.0623186, NaN, NaN, NaN, 0.0335714, "- N/A -   "
37.41, 1410.109, 0.0624547, NaN, NaN, NaN, 0.0323506, "- N/A -   "
37.49, 1413.69, 0.06258799, NaN, NaN, NaN, 0.0323506, "- N/A -   "
37.57, 1416.79, 0.0627102, NaN, NaN, NaN, 0.0372337, "- N/A -   "
37.65, 1420.13, 0.06283512, NaN, NaN, NaN, 0.04089605, "- N/A -   "
37.73, 1423.58, 0.06296563, NaN, NaN, NaN, 0.0433376, "- N/A -   "
37.81, 1427.4, 0.06310169, NaN, NaN, NaN, 0.04089605, "- N/A -   "
37.89, 1431.46, 0.06325441, NaN, NaN, NaN, 0.0323506, "- N/A -   "
37.97, 1435.15, 0.06339325, NaN, NaN, NaN, 0.03112983, "- N/A -   "
38.05, 1438.491, 0.0635238, NaN, NaN, NaN, 0.03112983, "- N/A -   "
38.13, 1442.19, 0.06366537, NaN, NaN, NaN, 0.0286883, "- N/A -   "
38.21, 1445.29, 0.06378754, NaN, NaN, NaN, 0.0323506, "- N/A -   "
38.29, 1448.27, 0.0639014, NaN, NaN, NaN, 0.04089605, "- N/A -   "
38.37, 1451.37, 0.06401801, NaN, NaN, NaN, 0.0494415, "- N/A -   "
38.45, 1455.07, 0.06415963, NaN, NaN, NaN, 0.0445584, "- N/A -   "
38.53, 1459.36, 0.06431513, NaN, NaN, NaN, 0.03601294, "- N/A -   "
38.61, 1463.18, 0.0644567, NaN, NaN, NaN, 0.03112983, "- N/A -   "
38.69, 1466.87, 0.06460114, NaN, NaN, NaN, 0.0274675, "- N/A -   "
38.77, 1470.45, 0.06472609, NaN, NaN, NaN, 0.0299091, "- N/A -   "
38.85, 1473.67, 0.064851, NaN, NaN, NaN, 0.0335714, "- N/A -   "
38.93, 1476.53, 0.06496489, NaN, NaN, NaN, 0.0433376, "- N/A -   "
38.99, 1479.04, 0.0650593, NaN, NaN, NaN, 0.04577916, "- N/A -   "