File: 2_Tensile_Data/Hamel_ForceTest_Bolt10_Test2.csv
Time, Load (lb), Position (in), AxialStrain (in), TransverseStrain (in), Auxiliary (), Control Out (V), Stress (psi)
0.0, 1.29742, 0.0, NaN, NaN, NaN, 0.095831, "- N/A -   "
0.01, 1.76921, 3.054427E-5, NaN, NaN, NaN, 0.09094793, "- N/A -   "
0.02, 2.12305, 6.108854E-5, NaN, NaN, NaN, 0.084844, "- N/A -   "
0.03, 2.712792, 8.607931E-5, NaN, NaN, NaN, 0.0799609, "- N/A -   "
0.04, 3.06663, 0.000113847, NaN, NaN, NaN, 0.0750778, "- N/A -   "
0.05, 3.30253, 1.388376E-4, NaN, NaN, NaN, 0.07141549, "- N/A -   "
0.06, 3.65637, 0.000163828, NaN, NaN, NaN, 0.06775316, "- N/A -   "
0.07, 3.89227, 0.000186042, NaN, NaN, NaN, 0.0653116, "- N/A -   "
0.08, 4.246109, 0.000211033, NaN, NaN, NaN, 0.06287005, "- N/A -   "
0.09, 4.717899, 0.000233247, NaN, NaN, NaN, 0.0592077, "- N/A -   "
0.1, 4.83585, 2.582379E-4, NaN, NaN, NaN, 0.0555454, "- N/A -   "
0.11, 5.307636, 2.832287E-4, NaN, NaN, NaN, 0.05188305, "- N/A -   "
0.12, 5.54353, 3.054427E-4, NaN, NaN, NaN, 0.0494415, "- N/A -   "
0.13, 5.779426, 0.000330433, NaN, NaN, NaN, 0.04699994, "- N/A -   "
0.14, 6.01532, 0.000349871, NaN, NaN, NaN, 0.0445584, "- N/A -   "
0.15, 6.369163, 3.69308E-4, NaN, NaN, NaN, 0.0433376, "- N/A -   "
0.16, 6.60506, 0.000391522, NaN, NaN, NaN, 0.04211683, "- N/A -   "
0.17, 6.84095, 0.000410959, NaN, NaN, NaN, 0.04089605, "- N/A -   "
0.18, 7.07685, 0.000430397, NaN, NaN, NaN, 0.0396753, "- N/A -   "
0.19, 7.312743, 0.000449834, NaN, NaN, NaN, 0.0372337, "- N/A -   "
0.2, 7.548638, 4.664943E-4, NaN, NaN, NaN, 0.0372337, "- N/A -   "
0.21, 7.666586, 0.000485932, NaN, NaN, NaN, 0.0372337, "- N/A -   "
0.22, 7.90248, 5.053688E-4, NaN, NaN, NaN, 0.0347922, "- N/A -   "
0.23, 8.138375, 0.000522029, NaN, NaN, NaN, 0.0347922, "- N/A -   "
0.24, 8.492218, 5.414666E-4, NaN, NaN, NaN, 0.0335714, "- N/A -   "
0.25, 8.728113, 5.581271E-4, NaN, NaN, NaN, 0.0335714, "- N/A -   "
0.26, 8.964007, 5.747876E-4, NaN, NaN, NaN, 0.0347922, "- N/A -   "
0.27, 9.081955, 0.000588671, NaN, NaN, NaN, 0.0347922, "- N/A -   "
0.28, 9.199903, 0.000602555, NaN, NaN, NaN, 0.03601294, "- N/A -   "
0.29, 9.435798, 0.000619216, NaN, NaN, NaN, 0.03601294, "- N/A -   "
0.3, 9.671693, 0.000635876, NaN, NaN, NaN, 0.0372337, "- N/A -   "
0.31, 9.78964, 6.497599E-4, NaN, NaN, NaN, 0.0372337, "- N/A -   "
0.32, 10.0255, 6.636437E-4, NaN, NaN, NaN, 0.0384545, "- N/A -   "
0.33, 10.26143, 6.803042E-4, NaN, NaN, NaN, 0.0384545, "- N/A -   "
0.34, 10.3794, 0.000694188, NaN, NaN, NaN, 0.0396753, "- N/A -   "
0.35, 10.6153, 7.080717E-4, NaN, NaN, NaN, 0.04089605, "- N/A -   "
0.36, 10.73322, 7.219555E-4, NaN, NaN, NaN, 0.04211683, "- N/A -   "
0.37, 10.8512, 0.000735839, NaN, NaN, NaN, 0.0433376, "- N/A -   "
0.38, 11.0871, 0.0007525, NaN, NaN, NaN, 0.0433376, "- N/A -   "
0.39, 11.323, 7.663835E-4, NaN, NaN, NaN, 0.0445584, "- N/A -   "
0.4, 11.4409, 0.000783044, NaN, NaN, NaN, 0.04577916, "- N/A -   "
0.41, 11.7947, 7.997045E-4, NaN, NaN, NaN, 0.04577916, "- N/A -   "
0.42, 11.9127, 8.16365E-4, NaN, NaN, NaN, 0.0445584, "- N/A -   "
0.43, 12.14859, 0.000833026, NaN, NaN, NaN, 0.04577916, "- N/A -   "
0.52, 14.0357, 9.801934E-4, NaN, NaN, NaN, 0.04577916, "- N/A -   "
0.61, 16.27675, 0.0011468, NaN, NaN, NaN, 0.0384545, "- N/A -   "
0.7, 18.6357, 0.00132451, NaN, NaN, NaN, 0.0274675, "- N/A -   "
0.79, 20.52286, 0.00146335, NaN, NaN, NaN, 0.03112983, "- N/A -   "
0.88, 22.528, 0.00160774, NaN, NaN, NaN, 0.0347922, "- N/A -   "
0.97, 24.29718, 0.00174658, NaN, NaN, NaN, 0.0396753, "- N/A -   "
1.06, 26.3023, 0.00189374, NaN, NaN, NaN, 0.04089605, "- N/A -   "
1.15, 28.3074, 0.00203536, NaN, NaN, NaN, 0.0433376, "- N/A -   "
1.24, 30.6663, 0.00219919, NaN, NaN, NaN, 0.0372337, "- N/A -   "
1.33, 33.02529, 0.002363016, NaN, NaN, NaN, 0.0323506, "- N/A -   "
1.42, 35.1483, 0.00251018, NaN, NaN, NaN, 0.0335714, "- N/A -   "
1.51, 37.3893, 0.00265457, NaN, NaN, NaN, 0.0347922, "- N/A -   "
1.6, 39.7483, 0.00281285, NaN, NaN, NaN, 0.0323506, "- N/A -   "
1.69, 41.8714, 0.00294891, NaN, NaN, NaN, 0.0372337, "- N/A -   "
1.78, 43.87646, 0.003084971, NaN, NaN, NaN, 0.0445584, "- N/A -   "
1.87, 46.3534, 0.00324047, NaN, NaN, NaN, 0.04211683, "- N/A -   "
1.96, 49.0661, 0.00340152, NaN, NaN, NaN, 0.0384545, "- N/A -   "
2.05, 51.4251, 0.00355424, NaN, NaN, NaN, 0.03601294, "- N/A -   "
2.14, 54.0199, 0.00370696, NaN, NaN, NaN, 0.0347922, "- N/A -   "
2.23, 56.37889, 0.00385691, NaN, NaN, NaN, 0.03601294, "- N/A -   "
2.32, 58.9737, 0.004006853, NaN, NaN, NaN, 0.0347922, "- N/A -   "
2.41, 61.56858, 0.004154021, NaN, NaN, NaN, 0.0372337, "- N/A -   "
2.5, 63.92753, 0.004295635, NaN, NaN, NaN, 0.04089605, "- N/A -   "
2.59, 66.40443, 0.004440026, NaN, NaN, NaN, 0.0433376, "- N/A -   "
2.68, 69.35311, 0.004601078, NaN, NaN, NaN, 0.0384545, "- N/A -   "
2.77, 72.1838, 0.004764906, NaN, NaN, NaN, 0.0323506, "- N/A -   "
2.86, 74.66075, 0.004909297, NaN, NaN, NaN, 0.0347922, "- N/A -   "
2.95, 77.49149, 0.005067572, NaN, NaN, NaN, 0.0299091, "- N/A -   "
3.04, 79.96838, 0.00520919, NaN, NaN, NaN, 0.0335714, "- N/A -   "
3.13, 82.20939, 0.00533969, NaN, NaN, NaN, 0.04211683, "- N/A -   "
3.22, 84.56834, 0.00547575, NaN, NaN, NaN, 0.0482207, "- N/A -   "
3.31, 87.51702, 0.00564236, NaN, NaN, NaN, 0.04089605, "- N/A -   "
3.4, 90.4657, 0.00581174, NaN, NaN, NaN, 0.0323506, "- N/A -   "
3.49, 93.2965, 0.00596724, NaN, NaN, NaN, 0.03112983, "- N/A -   "
3.58, 95.8913, 0.006114407, NaN, NaN, NaN, 0.03112983, "- N/A -   "
3.67, 98.4861, 0.00626435, NaN, NaN, NaN, 0.03112983, "- N/A -   "
3.76, 100.6092, 0.006392082, NaN, NaN, NaN, 0.04089605, "- N/A -   "
3.85, 102.968, 0.0065337, NaN, NaN, NaN, 0.0445584, "- N/A -   "
3.94, 105.681, 0.006689195, NaN, NaN, NaN, 0.04211683, "- N/A -   "
4.03, 108.394, 0.00684747, NaN, NaN, NaN, 0.0396753, "- N/A -   "
4.12, 111.342, 0.00701685, NaN, NaN, NaN, 0.0299091, "- N/A -   "
4.21, 113.819, 0.0071668, NaN, NaN, NaN, 0.0299091, "- N/A -   "
4.3, 116.178, 0.00731119, NaN, NaN, NaN, 0.0323506, "- N/A -   "
4.39, 118.419, 0.007452802, NaN, NaN, NaN, 0.03601294, "- N/A -   "
4.48, 120.66, 0.007594416, NaN, NaN, NaN, 0.0396753, "- N/A -   "
4.57, 122.665, 0.0077277, NaN, NaN, NaN, 0.04699994, "- N/A -   "
4.66, 125.378, 0.007891529, NaN, NaN, NaN, 0.04089605, "- N/A -   "
4.75, 128.209, 0.008063687, NaN, NaN, NaN, 0.0323506, "- N/A -   "
4.84, 130.568, 0.008213632, NaN, NaN, NaN, 0.0323506, "- N/A -   "
4.93, 132.6909, 0.00835247, NaN, NaN, NaN, 0.03601294, "- N/A -   "
5.02, 135.4037, 0.008513521, NaN, NaN, NaN, 0.03112983, "- N/A -   "
5.11, 137.527, 0.008649582, NaN, NaN, NaN, 0.0372337, "- N/A -   "
5.2, 139.532, 0.00878842, NaN, NaN, NaN, 0.0433376, "- N/A -   "
5.29, 142.009, 0.008943918, NaN, NaN, NaN, 0.0396753, "- N/A -   "
5.38, 144.604, 0.009102193, NaN, NaN, NaN, 0.0372337, "- N/A -   "
5.47, 146.8446, 0.009252137, NaN, NaN, NaN, 0.03601294, "- N/A -   "
5.56, 149.557, 0.009413189, NaN, NaN, NaN, 0.03112983, "- N/A -   "
5.65, 151.798, 0.009563133, NaN, NaN, NaN, 0.03112983, "- N/A -   "
5.74, 154.0394, 0.009710302, NaN, NaN, NaN, 0.0335714, "- N/A -   "
5.83, 156.162, 0.009854692, NaN, NaN, NaN, 0.0347922, "- N/A -   "
5.92, 158.403, 0.00999353, NaN, NaN, NaN, 0.0396753, "- N/A -   "
6.01, 160.644, 0.0101324, NaN, NaN, NaN, 0.0445584, "- N/A -   "
6.1, 163.357, 0.010299, NaN, NaN, NaN, 0.0372337, "- N/A -   "
6.19, 165.834, 0.01046, NaN, NaN, NaN, 0.0323506, "- N/A -   "
6.28, 168.311, 0.0106072, NaN, NaN, NaN, 0.0347922, "- N/A -   "
6.37, 170.788, 0.0107655, NaN, NaN, NaN, 0.03112983, "- N/A -   "
6.46, 173.1469, 0.0109126, NaN, NaN, NaN, 0.0323506, "- N/A -   "
6.55, 175.152, 0.0110376, NaN, NaN, NaN, 0.0433376, "- N/A -   "
6.64, 177.393, 0.0111792, NaN, NaN, NaN, 0.0482207, "- N/A -   "
6.73, 180.342, 0.0113514, NaN, NaN, NaN, 0.0384545, "- N/A -   "
6.82, 182.937, 0.0115041, NaN, NaN, NaN, 0.0372337, "- N/A -   "
6.91, 185.531, 0.0116651, NaN, NaN, NaN, 0.0323506, "- N/A -   "
7, 188.244, 0.0118206, NaN, NaN, NaN, 0.0286883, "- N/A -   "
7.09, 190.603, 0.011965, NaN, NaN, NaN, 0.03112983, "- N/A -   "
7.18, 192.608, 0.0120955, NaN, NaN, NaN, 0.0396753, "- N/A -   "
7.27, 195.085, 0.0122344, NaN, NaN, NaN, 0.0445584, "- N/A -   "
7.36, 197.562, 0.0123815, NaN, NaN, NaN, 0.04577916, "- N/A -   "
7.45, 200.7466, 0.0125537, NaN, NaN, NaN, 0.03601294, "- N/A -   "
7.54, 203.577, 0.0127203, NaN, NaN, NaN, 0.0286883, "- N/A -   "
7.63, 206.172, 0.0128675, NaN, NaN, NaN, 0.03112983, "- N/A -   "
7.72, 208.649, 0.0130008, NaN, NaN, NaN, 0.0372337, "- N/A -   "
7.81, 211.244, 0.0131451, NaN, NaN, NaN, 0.0396753, "- N/A -   "
7.9, 213.721, 0.013284, NaN, NaN, NaN, 0.0445584, "- N/A -   "
7.99, 216.316, 0.0134339, NaN, NaN, NaN, 0.0445584, "- N/A -   "
8.08, 219.6182, 0.0136033, NaN, NaN, NaN, 0.03601294, "- N/A -   "
8.17, 222.685, 0.01377269, NaN, NaN, NaN, 0.0286883, "- N/A -   "
8.26, 225.162, 0.0139115, NaN, NaN, NaN, 0.0323506, "- N/A -   "
8.35, 227.875, 0.0140587, NaN, NaN, NaN, 0.0335714, "- N/A -   "
8.44, 230.705, 0.0142114, NaN, NaN, NaN, 0.0323506, "- N/A -   "
8.53, 233.0642, 0.0143475, NaN, NaN, NaN, 0.0384545, "- N/A -   "
8.62, 235.777, 0.0144919, NaN, NaN, NaN, 0.04089605, "- N/A -   "
8.71, 238.608, 0.0146446, NaN, NaN, NaN, 0.04089605, "- N/A -   "
8.8, 241.556, 0.0148001, NaN, NaN, NaN, 0.0372337, "- N/A -   "
8.89, 244.385, 0.01495, NaN, NaN, NaN, 0.0372337, "- N/A -   "
8.98, 247.4487, 0.0151111, NaN, NaN, NaN, 0.0323506, "- N/A -   "
9.07, 250.159, 0.0152583, NaN, NaN, NaN, 0.0335714, "- N/A -   "
9.16, 252.987, 0.0154026, NaN, NaN, NaN, 0.03601294, "- N/A -   "
9.25, 255.814, 0.0155526, NaN, NaN, NaN, 0.03601294, "- N/A -   "
9.34, 258.524, 0.0156914, NaN, NaN, NaN, 0.04089605, "- N/A -   "
9.43, 261.47, 0.01584137, NaN, NaN, NaN, 0.04089605, "- N/A -   "
9.52, 264.533, 0.0160024, NaN, NaN, NaN, 0.03601294, "- N/A -   "
9.61, 267.479, 0.0161607, NaN, NaN, NaN, 0.0335714, "- N/A -   "
9.7, 270.307, 0.0163051, NaN, NaN, NaN, 0.03601294, "- N/A -   "
9.79, 273.37, 0.0164661, NaN, NaN, NaN, 0.0299091, "- N/A -   "
9.88, 276.3161, 0.0166133, NaN, NaN, NaN, 0.03112983, "- N/A -   "
9.97, 278.79, 0.0167438, NaN, NaN, NaN, 0.0396753, "- N/A -   "
10.06, 281.3826, 0.0168799, NaN, NaN, NaN, 0.04577916, "- N/A -   "
10.15, 284.8, 0.01704648, NaN, NaN, NaN, 0.0384545, "- N/A -   "
10.24, 287.981, 0.0172075, NaN, NaN, NaN, 0.0347922, "- N/A -   "
10.33, 291.162, 0.0173658, NaN, NaN, NaN, 0.0299091, "- N/A -   "
10.42, 294.226, 0.0175185, NaN, NaN, NaN, 0.0286883, "- N/A -   "
10.51, 296.936, 0.0176546, NaN, NaN, NaN, 0.0347922, "- N/A -   "
10.6, 299.292, 0.0177851, NaN, NaN, NaN, 0.0445584, "- N/A -   "
10.69, 302.473, 0.0179378, NaN, NaN, NaN, 0.04211683, "- N/A -   "
10.78, 305.419, 0.0180878, NaN, NaN, NaN, 0.0445584, "- N/A -   "
10.87, 308.9539, 0.0182571, NaN, NaN, NaN, 0.03601294, "- N/A -   "
10.96, 312.371, 0.01842375, NaN, NaN, NaN, 0.0274675, "- N/A -   "
11.05, 315.1987, 0.01856814, NaN, NaN, NaN, 0.0299091, "- N/A -   "
11.14, 318.027, 0.018707, NaN, NaN, NaN, 0.0347922, "- N/A -   "
11.23, 320.854, 0.0188486, NaN, NaN, NaN, 0.0396753, "- N/A -   "
11.32, 323.8, 0.0189902, NaN, NaN, NaN, 0.04211683, "- N/A -   "
11.41, 326.746, 0.01913182, NaN, NaN, NaN, 0.04699994, "- N/A -   "
11.5, 330.398, 0.01930398, NaN, NaN, NaN, 0.03601294, "- N/A -   "
11.59, 333.697, 0.0194623, NaN, NaN, NaN, 0.0323506, "- N/A -   "
11.68, 336.5252, 0.0196066, NaN, NaN, NaN, 0.03601294, "- N/A -   "
11.77, 339.824, 0.0197538, NaN, NaN, NaN, 0.03601294, "- N/A -   "
11.86, 343.123, 0.0199121, NaN, NaN, NaN, 0.0335714, "- N/A -   "
11.95, 345.833, 0.02003982, NaN, NaN, NaN, 0.04211683, "- N/A -   "
12.04, 349.015, 0.0201898, NaN, NaN, NaN, 0.04211683, "- N/A -   "
12.13, 352.196, 0.0203425, NaN, NaN, NaN, 0.04089605, "- N/A -   "
12.22, 355.8487, 0.0205063, NaN, NaN, NaN, 0.0347922, "- N/A -   "
12.31, 359.03, 0.020659, NaN, NaN, NaN, 0.0335714, "- N/A -   "
12.4, 362.447, 0.0208145, NaN, NaN, NaN, 0.03112983, "- N/A -   "
12.49, 365.393, 0.0209589, NaN, NaN, NaN, 0.0335714, "- N/A -   "
12.58, 368.5739, 0.02110887, NaN, NaN, NaN, 0.0347922, "- N/A -   "
12.67, 371.6374, 0.02125326, NaN, NaN, NaN, 0.0372337, "- N/A -   "
12.76, 374.701, 0.0213949, NaN, NaN, NaN, 0.04089605, "- N/A -   "
12.85, 378.0, 0.02154204, NaN, NaN, NaN, 0.04211683, "- N/A -   "
12.94, 381.5348, 0.0217003, NaN, NaN, NaN, 0.0372337, "- N/A -   "
13.03, 385.07, 0.0218614, NaN, NaN, NaN, 0.0323506, "- N/A -   "
13.12, 388.2509, 0.02200576, NaN, NaN, NaN, 0.0347922, "- N/A -   "
13.21, 391.314, 0.0221502, NaN, NaN, NaN, 0.0372337, "- N/A -   "
13.3, 394.613, 0.0223001, NaN, NaN, NaN, 0.0372337, "- N/A -   "
13.39, 397.3235, 0.0224306, NaN, NaN, NaN, 0.04577916, "- N/A -   "
13.48, 400.74, 0.0225805, NaN, NaN, NaN, 0.04577916, "- N/A -   "
13.57, 404.864, 0.0227583, NaN, NaN, NaN, 0.0335714, "- N/A -   "
13.66, 408.2813, 0.0229165, NaN, NaN, NaN, 0.03112983, "- N/A -   "
13.75, 411.8161, 0.02307481, NaN, NaN, NaN, 0.0262467, "- N/A -   "
13.84, 415.1152, 0.023222, NaN, NaN, NaN, 0.0274675, "- N/A -   "
13.93, 418.061, 0.02335526, NaN, NaN, NaN, 0.0347922, "- N/A -   "
13.99, 419.946, 0.0234441, NaN, NaN, NaN, 0.0396753, "- N/A -   "
14, 420.3, 0.023458, NaN, NaN, NaN, 0.04089605, "- N/A -   "
14.01, 420.535, 0.0234719, NaN, NaN, NaN, 0.04211683, "- N/A -   "
14.03, 421.2422, 0.0235052, NaN, NaN, NaN, 0.04211683, "- N/A -   "
14.05, 422.067, 0.0235385, NaN, NaN, NaN, 0.0433376, "- N/A -   "
14.07, 422.7739, 0.02356907, NaN, NaN, NaN, 0.0433376, "- N/A -   "
14.09, 423.4809, 0.02360239, NaN, NaN, NaN, 0.0433376, "- N/A -   "
14.11, 424.188, 0.0236357, NaN, NaN, NaN, 0.0433376, "- N/A -   "
14.13, 424.8948, 0.023669, NaN, NaN, NaN, 0.0445584, "- N/A -   "
14.15, 425.72, 0.0236996, NaN, NaN, NaN, 0.0445584, "- N/A -   "
14.17, 426.4265, 0.0237329, NaN, NaN, NaN, 0.0445584, "- N/A -   "
14.19, 427.133, 0.02376622, NaN, NaN, NaN, 0.0445584, "- N/A -   "
14.21, 428.076, 0.0238051, NaN, NaN, NaN, 0.0433376, "- N/A -   "
14.23, 428.901, 0.0238384, NaN, NaN, NaN, 0.04211683, "- N/A -   "
14.25, 429.8435, 0.02387729, NaN, NaN, NaN, 0.0396753, "- N/A -   "
14.27, 430.668, 0.0239162, NaN, NaN, NaN, 0.0372337, "- N/A -   "
14.29, 431.611, 0.023955, NaN, NaN, NaN, 0.0347922, "- N/A -   "
14.31, 432.6713, 0.02399669, NaN, NaN, NaN, 0.0323506, "- N/A -   "
14.33, 433.378, 0.0240328, NaN, NaN, NaN, 0.0299091, "- N/A -   "
14.35, 434.321, 0.0240689, NaN, NaN, NaN, 0.0286883, "- N/A -   "
14.37, 434.91, 0.0241022, NaN, NaN, NaN, 0.0286883, "- N/A -   "
14.39, 435.617, 0.0241327, NaN, NaN, NaN, 0.0299091, "- N/A -   "
14.41, 436.3239, 0.0241661, NaN, NaN, NaN, 0.0299091, "- N/A -   "
14.43, 437.031, 0.0241994, NaN, NaN, NaN, 0.0299091, "- N/A -   "
14.45, 437.856, 0.0242299, NaN, NaN, NaN, 0.03112983, "- N/A -   "
14.47, 438.445, 0.0242605, NaN, NaN, NaN, 0.0323506, "- N/A -   "
14.49, 439.152, 0.0242938, NaN, NaN, NaN, 0.0323506, "- N/A -   "
14.51, 439.977, 0.0243243, NaN, NaN, NaN, 0.0335714, "- N/A -   "
14.53, 440.683, 0.0243577, NaN, NaN, NaN, 0.0347922, "- N/A -   "
14.55, 441.39, 0.0243854, NaN, NaN, NaN, 0.03601294, "- N/A -   "
14.57, 442.097, 0.0244188, NaN, NaN, NaN, 0.03601294, "- N/A -   "
14.59, 442.804, 0.0244493, NaN, NaN, NaN, 0.0372337, "- N/A -   "
14.61, 443.629, 0.0244854, NaN, NaN, NaN, 0.03601294, "- N/A -   "
14.63, 444.454, 0.0245187, NaN, NaN, NaN, 0.03601294, "- N/A -   "
14.65, 445.043, 0.02455204, NaN, NaN, NaN, 0.03601294, "- N/A -   "
14.67, 445.8678, 0.0245826, NaN, NaN, NaN, 0.0372337, "- N/A -   "
14.69, 446.457, 0.0246104, NaN, NaN, NaN, 0.0396753, "- N/A -   "
14.71, 446.928, 0.02463812, NaN, NaN, NaN, 0.04211683, "- N/A -   "
14.73, 447.871, 0.0246714, NaN, NaN, NaN, 0.04211683, "- N/A -   "
14.75, 448.578, 0.0247048, NaN, NaN, NaN, 0.04211683, "- N/A -   "
14.77, 449.2848, 0.0247381, NaN, NaN, NaN, 0.04211683, "- N/A -   "
14.79, 449.992, 0.0247714, NaN, NaN, NaN, 0.04211683, "- N/A -   "
14.81, 450.8165, 0.0248019, NaN, NaN, NaN, 0.0433376, "- N/A -   "
14.83, 451.523, 0.0248353, NaN, NaN, NaN, 0.0433376, "- N/A -   "
14.85, 452.348, 0.0248714, NaN, NaN, NaN, 0.04211683, "- N/A -   "
14.87, 453.291, 0.0249102, NaN, NaN, NaN, 0.04089605, "- N/A -   "
14.89, 454.116, 0.0249491, NaN, NaN, NaN, 0.0384545, "- N/A -   "
14.91, 455.058, 0.0249852, NaN, NaN, NaN, 0.03601294, "- N/A -   "
14.93, 455.883, 0.02502131, NaN, NaN, NaN, 0.0347922, "- N/A -   "
14.95, 456.59, 0.0250574, NaN, NaN, NaN, 0.0335714, "- N/A -   "
14.97, 457.5326, 0.0250935, NaN, NaN, NaN, 0.0335714, "- N/A -   "
14.99, 458.3574, 0.0251296, NaN, NaN, NaN, 0.03112983, "- N/A -   "
15.01, 459.182, 0.0251657, NaN, NaN, NaN, 0.0299091, "- N/A -   "
15.03, 459.7713, 0.0251962, NaN, NaN, NaN, 0.03112983, "- N/A -   "
15.05, 460.36, 0.02522679, NaN, NaN, NaN, 0.0323506, "- N/A -   "
15.07, 461.303, 0.0252573, NaN, NaN, NaN, 0.0335714, "- N/A -   "
15.09, 461.892, 0.0252907, NaN, NaN, NaN, 0.0335714, "- N/A -   "
15.11, 462.717, 0.0253212, NaN, NaN, NaN, 0.0347922, "- N/A -   "
15.13, 463.542, 0.0253545, NaN, NaN, NaN, 0.0347922, "- N/A -   "
15.15, 464.249, 0.0253878, NaN, NaN, NaN, 0.0347922, "- N/A -   "
15.17, 464.956, 0.02542394, NaN, NaN, NaN, 0.0347922, "- N/A -   "
15.19, 465.8983, 0.02546, NaN, NaN, NaN, 0.0323506, "- N/A -   "
15.21, 466.841, 0.0254989, NaN, NaN, NaN, 0.03112983, "- N/A -   "
15.23, 467.548, 0.0255322, NaN, NaN, NaN, 0.0299091, "- N/A -   "
[...]
18.31, 587.662, 0.0306498, NaN, NaN, NaN, 0.0372337, "- N/A -   "
18.41, 591.92, 0.0308275, NaN, NaN, NaN, 0.0323506, "- N/A -   "
18.51, 595.469, 0.030983, NaN, NaN, NaN, 0.0372337, "- N/A -   "
18.61, 599.608, 0.03115238, NaN, NaN, NaN, 0.0372337, "- N/A -   "
18.71, 603.7483, 0.03132454, NaN, NaN, NaN, 0.0335714, "- N/A -   "
18.81, 607.415, 0.0314745, NaN, NaN, NaN, 0.04089605, "- N/A -   "
18.91, 611.4366, 0.0316439, NaN, NaN, NaN, 0.0396753, "- N/A -   "
19.01, 615.8129, 0.0318216, NaN, NaN, NaN, 0.0347922, "- N/A -   "
19.11, 619.7162, 0.0319854, NaN, NaN, NaN, 0.0372337, "- N/A -   "
19.21, 624.0926, 0.0321631, NaN, NaN, NaN, 0.03112983, "- N/A -   "
19.31, 628.114, 0.0323325, NaN, NaN, NaN, 0.0299091, "- N/A -   "
19.41, 631.8991, 0.0324908, NaN, NaN, NaN, 0.0335714, "- N/A -   "
19.51, 635.684, 0.032649, NaN, NaN, NaN, 0.0372337, "- N/A -   "
19.61, 639.3508, 0.03280177, NaN, NaN, NaN, 0.0445584, "- N/A -   "
19.71, 643.727, 0.0329767, NaN, NaN, NaN, 0.0396753, "- N/A -   "
19.81, 648.2219, 0.0331572, NaN, NaN, NaN, 0.0347922, "- N/A -   "
19.91, 652.1251, 0.033321, NaN, NaN, NaN, 0.03601294, "- N/A -   "
20.01, 656.5015, 0.0334987, NaN, NaN, NaN, 0.0323506, "- N/A -   "
20.11, 660.4048, 0.0336598, NaN, NaN, NaN, 0.0335714, "- N/A -   "
20.21, 663.835, 0.03380418, NaN, NaN, NaN, 0.0445584, "- N/A -   "
20.31, 667.7382, 0.03396523, NaN, NaN, NaN, 0.04699994, "- N/A -   "
20.41, 672.5877, 0.03415405, NaN, NaN, NaN, 0.03601294, "- N/A -   "
20.51, 676.7276, 0.0343262, NaN, NaN, NaN, 0.0335714, "- N/A -   "
20.61, 681.3405, 0.0345067, NaN, NaN, NaN, 0.0274675, "- N/A -   "
20.71, 685.007, 0.03466775, NaN, NaN, NaN, 0.0299091, "- N/A -   "
20.81, 688.556, 0.0348121, NaN, NaN, NaN, 0.0396753, "- N/A -   "
20.91, 692.4589, 0.0349704, NaN, NaN, NaN, 0.0433376, "- N/A -   "
21.01, 696.599, 0.03513702, NaN, NaN, NaN, 0.0433376, "- N/A -   "
21.11, 701.2117, 0.0353203, NaN, NaN, NaN, 0.03601294, "- N/A -   "
21.21, 705.7064, 0.0355008, NaN, NaN, NaN, 0.0299091, "- N/A -   "
21.31, 709.6096, 0.03565905, NaN, NaN, NaN, 0.0335714, "- N/A -   "
21.41, 713.395, 0.0358145, NaN, NaN, NaN, 0.0384545, "- N/A -   "
21.51, 717.5344, 0.0359812, NaN, NaN, NaN, 0.0384545, "- N/A -   "
21.61, 721.2012, 0.0361339, NaN, NaN, NaN, 0.04577916, "- N/A -   "
21.71, 725.8141, 0.0363116, NaN, NaN, NaN, 0.0396753, "- N/A -   "
21.81, 730.664, 0.036506, NaN, NaN, NaN, 0.0274675, "- N/A -   "
21.91, 734.3304, 0.0366615, NaN, NaN, NaN, 0.0335714, "- N/A -   "
22.01, 738.588, 0.0368253, NaN, NaN, NaN, 0.0335714, "- N/A -   "
22.11, 742.7283, 0.0369947, NaN, NaN, NaN, 0.0335714, "- N/A -   "
22.21, 746.1584, 0.0371391, NaN, NaN, NaN, 0.04211683, "- N/A -   "
22.31, 750.5348, 0.03730844, NaN, NaN, NaN, 0.04089605, "- N/A -   "
22.41, 754.911, 0.0374834, NaN, NaN, NaN, 0.0372337, "- N/A -   "
22.51, 759.051, 0.0376528, NaN, NaN, NaN, 0.03601294, "- N/A -   "
22.61, 763.4274, 0.03782769, NaN, NaN, NaN, 0.0335714, "- N/A -   "
22.71, 767.2124, 0.03798319, NaN, NaN, NaN, 0.0372337, "- N/A -   "
22.81, 771.234, 0.0381498, NaN, NaN, NaN, 0.0384545, "- N/A -   "
22.91, 775.3738, 0.0383136, NaN, NaN, NaN, 0.0384545, "- N/A -   "
23.01, 779.159, 0.0384719, NaN, NaN, NaN, 0.04211683, "- N/A -   "
23.11, 783.6535, 0.0386441, NaN, NaN, NaN, 0.04089605, "- N/A -   "
23.21, 788.385, 0.0388329, NaN, NaN, NaN, 0.0299091, "- N/A -   "
23.31, 792.406, 0.0389939, NaN, NaN, NaN, 0.0323506, "- N/A -   "
23.41, 796.901, 0.03917441, NaN, NaN, NaN, 0.0262467, "- N/A -   "
23.51, 800.686, 0.0393299, NaN, NaN, NaN, 0.03112983, "- N/A -   "
23.61, 803.879, 0.03946597, NaN, NaN, NaN, 0.0445584, "- N/A -   "
23.71, 807.901, 0.039627, NaN, NaN, NaN, 0.04699994, "- N/A -   "
23.81, 812.751, 0.0398158, NaN, NaN, NaN, 0.0372337, "- N/A -   "
23.91, 817.2452, 0.0399936, NaN, NaN, NaN, 0.0323506, "- N/A -   "
24.01, 821.6216, 0.0401657, NaN, NaN, NaN, 0.0299091, "- N/A -   "
24.11, 825.5249, 0.0403295, NaN, NaN, NaN, 0.0323506, "- N/A -   "
24.21, 829.1916, 0.04047949, NaN, NaN, NaN, 0.0384545, "- N/A -   "
24.31, 832.9765, 0.04063776, NaN, NaN, NaN, 0.04211683, "- N/A -   "
24.41, 837.2347, 0.0408044, NaN, NaN, NaN, 0.0433376, "- N/A -   "
24.51, 841.7294, 0.0409793, NaN, NaN, NaN, 0.0396753, "- N/A -   "
24.61, 846.697, 0.0411737, NaN, NaN, NaN, 0.0274675, "- N/A -   "
24.71, 850.4821, 0.04133195, NaN, NaN, NaN, 0.03112983, "- N/A -   "
24.81, 854.504, 0.041493, NaN, NaN, NaN, 0.0335714, "- N/A -   "
24.91, 858.5252, 0.0416541, NaN, NaN, NaN, 0.03601294, "- N/A -   "
25.01, 862.074, 0.04180122, NaN, NaN, NaN, 0.04577916, "- N/A -   "
25.11, 866.5683, 0.04197338, NaN, NaN, NaN, 0.0433376, "- N/A -   "
25.21, 871.3, 0.0421566, NaN, NaN, NaN, 0.0347922, "- N/A -   "
25.31, 875.3211, 0.04232047, NaN, NaN, NaN, 0.03601294, "- N/A -   "
25.41, 879.343, 0.0424899, NaN, NaN, NaN, 0.0347922, "- N/A -   "
25.51, 883.601, 0.04265646, NaN, NaN, NaN, 0.0347922, "- N/A -   "
25.61, 887.504, 0.0428147, NaN, NaN, NaN, 0.0384545, "- N/A -   "
25.71, 891.644, 0.0429786, NaN, NaN, NaN, 0.0396753, "- N/A -   "
25.81, 896.02, 0.0431507, NaN, NaN, NaN, 0.0372337, "- N/A -   "
25.91, 900.2783, 0.0433201, NaN, NaN, NaN, 0.03601294, "- N/A -   "
26.01, 904.5365, 0.04349226, NaN, NaN, NaN, 0.0347922, "- N/A -   "
26.11, 908.9129, 0.0436644, NaN, NaN, NaN, 0.03112983, "- N/A -   "
26.21, 913.171, 0.0438338, NaN, NaN, NaN, 0.03112983, "- N/A -   "
26.31, 916.8377, 0.0439865, NaN, NaN, NaN, 0.0372337, "- N/A -   "
26.41, 920.8592, 0.0441448, NaN, NaN, NaN, 0.0396753, "- N/A -   "
26.51, 924.8808, 0.0443031, NaN, NaN, NaN, 0.0433376, "- N/A -   "
26.61, 929.257, 0.04447801, NaN, NaN, NaN, 0.0396753, "- N/A -   "
26.71, 933.397, 0.04464739, NaN, NaN, NaN, 0.0396753, "- N/A -   "
26.81, 938.01, 0.0448251, NaN, NaN, NaN, 0.0335714, "- N/A -   "
26.91, 942.505, 0.0450028, NaN, NaN, NaN, 0.0286883, "- N/A -   "
27.01, 945.935, 0.0451472, NaN, NaN, NaN, 0.0384545, "- N/A -   "
27.11, 949.838, 0.04529993, NaN, NaN, NaN, 0.0445584, "- N/A -   "
27.21, 954.5693, 0.04548597, NaN, NaN, NaN, 0.0372337, "- N/A -   "
27.31, 959.064, 0.04566368, NaN, NaN, NaN, 0.03112983, "- N/A -   "
27.41, 963.559, 0.04583584, NaN, NaN, NaN, 0.0286883, "- N/A -   "
27.51, 967.58, 0.0460024, NaN, NaN, NaN, 0.0286883, "- N/A -   "
27.61, 971.2469, 0.04615239, NaN, NaN, NaN, 0.0372337, "- N/A -   "
27.71, 974.9136, 0.04629956, NaN, NaN, NaN, 0.0445584, "- N/A -   "
27.81, 979.1717, 0.0464662, NaN, NaN, NaN, 0.0445584, "- N/A -   "
27.91, 983.6663, 0.0466439, NaN, NaN, NaN, 0.0396753, "- N/A -   "
28.01, 988.516, 0.0468327, NaN, NaN, NaN, 0.0299091, "- N/A -   "
28.11, 992.774, 0.0469993, NaN, NaN, NaN, 0.0299091, "- N/A -   "
28.21, 996.677, 0.047152, NaN, NaN, NaN, 0.03601294, "- N/A -   "
28.31, 1000.7, 0.0473158, NaN, NaN, NaN, 0.0372337, "- N/A -   "
28.41, 1004.72, 0.0474714, NaN, NaN, NaN, 0.04211683, "- N/A -   "
28.51, 1008.98, 0.04764073, NaN, NaN, NaN, 0.04089605, "- N/A -   "
28.61, 1013.954, 0.0478295, NaN, NaN, NaN, 0.03112983, "- N/A -   "
28.71, 1018.13, 0.0479962, NaN, NaN, NaN, 0.03112983, "- N/A -   "
28.81, 1022.06, 0.04815165, NaN, NaN, NaN, 0.03601294, "- N/A -   "
28.91, 1026.83, 0.0483294, NaN, NaN, NaN, 0.0323506, "- N/A -   "
29.01, 1030.53, 0.0484821, NaN, NaN, NaN, 0.0396753, "- N/A -   "
29.11, 1034.58, 0.04864314, NaN, NaN, NaN, 0.04211683, "- N/A -   "
29.21, 1038.997, 0.04881252, NaN, NaN, NaN, 0.04089605, "- N/A -   "
29.31, 1043.29, 0.0489819, NaN, NaN, NaN, 0.0396753, "- N/A -   "
29.41, 1047.7, 0.04915406, NaN, NaN, NaN, 0.03601294, "- N/A -   "
29.51, 1052, 0.04932344, NaN, NaN, NaN, 0.03601294, "- N/A -   "
29.61, 1056.17, 0.04948727, NaN, NaN, NaN, 0.03601294, "- N/A -   "
29.71, 1060.22, 0.0496511, NaN, NaN, NaN, 0.0372337, "- N/A -   "
29.81, 1064.28, 0.0498094, NaN, NaN, NaN, 0.04089605, "- N/A -   "
29.91, 1068.57, 0.04997598, NaN, NaN, NaN, 0.04089605, "- N/A -   "
30.01, 1073.22, 0.0501592, NaN, NaN, NaN, 0.0335714, "- N/A -   "
30.11, 1077.63, 0.0503286, NaN, NaN, NaN, 0.0323506, "- N/A -   "
30.21, 1081.69, 0.05049523, NaN, NaN, NaN, 0.0323506, "- N/A -   "
30.31, 1086.22, 0.05066739, NaN, NaN, NaN, 0.0299091, "- N/A -   "
30.41, 1089.44, 0.0508062, NaN, NaN, NaN, 0.04211683, "- N/A -   "
30.51, 1093.26, 0.05095617, NaN, NaN, NaN, 0.0494415, "- N/A -   "
30.61, 1097.91, 0.0511394, NaN, NaN, NaN, 0.04211683, "- N/A -   "
30.71, 1102.56, 0.0513227, NaN, NaN, NaN, 0.0347922, "- N/A -   "
30.81, 1107.209, 0.0515032, NaN, NaN, NaN, 0.0299091, "- N/A -   "
30.91, 1111.26, 0.0516642, NaN, NaN, NaN, 0.03112983, "- N/A -   "
31.01, 1114.96, 0.0518142, NaN, NaN, NaN, 0.0396753, "- N/A -   "
31.055, 1116.75, 0.0518836, NaN, NaN, NaN, 0.04089605, "- N/A -   "