File: 2_Tensile_Data/Hamel_ForceTest_Bolt7_Test9.csv
Time, Load (lb), Position (in), AxialStrain (in), TransverseStrain (in), Auxiliary (), Control Out (V), Stress (psi)
0.0, 12.5024, 0.0, NaN, NaN, NaN, -0.007935055, "- N/A -   "
0.01, 12.5024, -2.776752E-6, NaN, NaN, NaN, 6.103888E-4, "- N/A -   "
0.02, 12.5024, 0.0, NaN, NaN, NaN, 0.006714277, "- N/A -   "
0.03, 12.5024, 2.776752E-6, NaN, NaN, NaN, 0.0213636, "- N/A -   "
0.04, 12.5024, 5.553504E-6, NaN, NaN, NaN, 0.0384545, "- N/A -   "
0.05, 12.6204, 1.38838e-05, NaN, NaN, NaN, 0.0543246, "- N/A -   "
0.06, 12.8563, 2.77675e-05, NaN, NaN, NaN, 0.06775316, "- N/A -   "
0.07, 12.9742, 4.720478E-5, NaN, NaN, NaN, 0.07874016, "- N/A -   "
0.08, 13.2101, 6.94188E-5, NaN, NaN, NaN, 0.08850638, "- N/A -   "
0.09, 13.446, 9.718631E-5, NaN, NaN, NaN, 0.095831, "- N/A -   "
0.1, 14.0357, 0.000124954, NaN, NaN, NaN, 0.103156, "- N/A -   "
0.16, 17.3383, 0.000288782, NaN, NaN, NaN, 0.0750778, "- N/A -   "
0.22, 19.57928, 4.081825E-4, NaN, NaN, NaN, 0.06653238, "- N/A -   "
0.28, 21.8203, 0.000522029, NaN, NaN, NaN, 0.06164927, "- N/A -   "
0.34, 24.5331, 6.497599E-4, NaN, NaN, NaN, 0.0494415, "- N/A -   "
0.4, 26.6561, 0.000763607, NaN, NaN, NaN, 0.0433376, "- N/A -   "
0.46, 28.7792, 8.691233E-4, NaN, NaN, NaN, 0.0396753, "- N/A -   "
0.52, 30.9022, 9.829701E-4, NaN, NaN, NaN, 0.0335714, "- N/A -   "
0.58, 33.02529, 0.00108849, NaN, NaN, NaN, 0.03112983, "- N/A -   "
0.64, 35.0304, 0.00119123, NaN, NaN, NaN, 0.0299091, "- N/A -   "
0.7, 36.79961, 0.00128286, NaN, NaN, NaN, 0.0335714, "- N/A -   "
0.76, 38.4509, 0.00136616, NaN, NaN, NaN, 0.04211683, "- N/A -   "
0.82, 40.22009, 0.00146057, NaN, NaN, NaN, 0.0433376, "- N/A -   "
0.88, 42.2252, 0.00156331, NaN, NaN, NaN, 0.04211683, "- N/A -   "
0.94, 44.34825, 0.00166605, NaN, NaN, NaN, 0.04211683, "- N/A -   "
1, 46.4713, 0.00176879, NaN, NaN, NaN, 0.0396753, "- N/A -   "
1.06, 48.47641, 0.00187153, NaN, NaN, NaN, 0.0384545, "- N/A -   "
1.12, 51.0713, 0.001990931, NaN, NaN, NaN, 0.0299091, "- N/A -   "
1.18, 53.3123, 0.00209645, NaN, NaN, NaN, 0.0274675, "- N/A -   "
1.24, 55.1994, 0.00219086, NaN, NaN, NaN, 0.0299091, "- N/A -   "
1.3, 57.08658, 0.00228527, NaN, NaN, NaN, 0.0335714, "- N/A -   "
1.36, 59.0917, 0.0023769, NaN, NaN, NaN, 0.03601294, "- N/A -   "
1.42, 61.3327, 0.00247964, NaN, NaN, NaN, 0.0347922, "- N/A -   "
1.48, 63.2198, 0.00257127, NaN, NaN, NaN, 0.0384545, "- N/A -   "
1.54, 65.22495, 0.0026629, NaN, NaN, NaN, 0.04211683, "- N/A -   "
1.6, 67.23006, 0.00275731, NaN, NaN, NaN, 0.04577916, "- N/A -   "
1.66, 69.47106, 0.00286005, NaN, NaN, NaN, 0.0433376, "- N/A -   "
1.72, 72.06591, 0.00297668, NaN, NaN, NaN, 0.03601294, "- N/A -   "
1.78, 74.42485, 0.003087748, NaN, NaN, NaN, 0.0323506, "- N/A -   "
1.84, 76.5479, 0.00318493, NaN, NaN, NaN, 0.0323506, "- N/A -   "
1.9, 78.55301, 0.003279344, NaN, NaN, NaN, 0.03601294, "- N/A -   "
1.96, 80.794, 0.003379307, NaN, NaN, NaN, 0.03601294, "- N/A -   "
2.02, 83.03502, 0.00347927, NaN, NaN, NaN, 0.0347922, "- N/A -   "
2.08, 85.15807, 0.00357646, NaN, NaN, NaN, 0.0372337, "- N/A -   "
2.14, 87.28113, 0.00366809, NaN, NaN, NaN, 0.0396753, "- N/A -   "
2.2, 89.40418, 0.00375972, NaN, NaN, NaN, 0.0433376, "- N/A -   "
2.26, 91.76313, 0.00386802, NaN, NaN, NaN, 0.0396753, "- N/A -   "
2.32, 94.1221, 0.00397353, NaN, NaN, NaN, 0.0384545, "- N/A -   "
2.38, 96.599, 0.00408183, NaN, NaN, NaN, 0.0335714, "- N/A -   "
2.44, 98.72203, 0.004176235, NaN, NaN, NaN, 0.03601294, "- N/A -   "
2.5, 100.963, 0.004276198, NaN, NaN, NaN, 0.03601294, "- N/A -   "
2.56, 103.44, 0.00439004, NaN, NaN, NaN, 0.0299091, "- N/A -   "
2.62, 105.681, 0.00449001, NaN, NaN, NaN, 0.03112983, "- N/A -   "
2.68, 107.804, 0.004584417, NaN, NaN, NaN, 0.0335714, "- N/A -   "
2.74, 110.045, 0.00468438, NaN, NaN, NaN, 0.0335714, "- N/A -   "
2.8, 112.404, 0.00478712, NaN, NaN, NaN, 0.0323506, "- N/A -   "
2.86, 114.527, 0.004875976, NaN, NaN, NaN, 0.0372337, "- N/A -   "
2.92, 116.414, 0.004964832, NaN, NaN, NaN, 0.04089605, "- N/A -   "
2.98, 118.537, 0.00505924, NaN, NaN, NaN, 0.0445584, "- N/A -   "
3.04, 120.778, 0.00515365, NaN, NaN, NaN, 0.04577916, "- N/A -   "
3.1, 123.491, 0.0052675, NaN, NaN, NaN, 0.04089605, "- N/A -   "
3.16, 126.086, 0.00537857, NaN, NaN, NaN, 0.0347922, "- N/A -   "
3.22, 128.4448, 0.00548131, NaN, NaN, NaN, 0.0347922, "- N/A -   "
3.28, 130.332, 0.005572941, NaN, NaN, NaN, 0.0384545, "- N/A -   "
3.34, 132.9268, 0.00567846, NaN, NaN, NaN, 0.0347922, "- N/A -   "
3.4, 135.522, 0.0057923, NaN, NaN, NaN, 0.0299091, "- N/A -   "
3.46, 137.6447, 0.005886714, NaN, NaN, NaN, 0.03112983, "- N/A -   "
3.52, 139.65, 0.005972794, NaN, NaN, NaN, 0.0372337, "- N/A -   "
3.58, 141.419, 0.006056096, NaN, NaN, NaN, 0.04577916, "- N/A -   "
3.64, 143.66, 0.00615051, NaN, NaN, NaN, 0.0482207, "- N/A -   "
3.7, 146.137, 0.0062588, NaN, NaN, NaN, 0.0445584, "- N/A -   "
3.76, 148.968, 0.00637542, NaN, NaN, NaN, 0.0384545, "- N/A -   "
3.82, 151.327, 0.006478162, NaN, NaN, NaN, 0.03601294, "- N/A -   "
3.88, 153.686, 0.006583679, NaN, NaN, NaN, 0.0335714, "- N/A -   "
3.94, 156.398, 0.0067003, NaN, NaN, NaN, 0.0274675, "- N/A -   "
4, 158.7573, 0.006797489, NaN, NaN, NaN, 0.0274675, "- N/A -   "
4.06, 160.88, 0.00688912, NaN, NaN, NaN, 0.03112983, "- N/A -   "
4.12, 162.885, 0.006986308, NaN, NaN, NaN, 0.0335714, "- N/A -   "
4.18, 164.891, 0.00706961, NaN, NaN, NaN, 0.0396753, "- N/A -   "
4.24, 167.014, 0.00716124, NaN, NaN, NaN, 0.0445584, "- N/A -   "
4.3, 169.137, 0.00725565, NaN, NaN, NaN, 0.04577916, "- N/A -   "
4.36, 171.496, 0.00735562, NaN, NaN, NaN, 0.04577916, "- N/A -   "
4.42, 173.973, 0.00745836, NaN, NaN, NaN, 0.04577916, "- N/A -   "
4.48, 176.567, 0.00756943, NaN, NaN, NaN, 0.0396753, "- N/A -   "
4.54, 179.3981, 0.00768327, NaN, NaN, NaN, 0.0335714, "- N/A -   "
4.6, 181.757, 0.00779157, NaN, NaN, NaN, 0.03112983, "- N/A -   "
4.66, 183.998, 0.007885976, NaN, NaN, NaN, 0.0323506, "- N/A -   "
4.72, 186.239, 0.007980385, NaN, NaN, NaN, 0.0347922, "- N/A -   "
4.78, 188.48, 0.008077571, NaN, NaN, NaN, 0.0372337, "- N/A -   "
4.84, 190.721, 0.008171981, NaN, NaN, NaN, 0.0384545, "- N/A -   "
4.9, 192.962, 0.00826639, NaN, NaN, NaN, 0.04089605, "- N/A -   "
4.96, 195.085, 0.008358023, NaN, NaN, NaN, 0.0445584, "- N/A -   "
5.02, 197.326, 0.008455209, NaN, NaN, NaN, 0.04577916, "- N/A -   "
5.08, 200.157, 0.008569056, NaN, NaN, NaN, 0.0396753, "- N/A -   "
5.14, 202.7517, 0.008688456, NaN, NaN, NaN, 0.0323506, "- N/A -   "
5.2, 205.347, 0.00878842, NaN, NaN, NaN, 0.03112983, "- N/A -   "
5.26, 207.2337, 0.00888283, NaN, NaN, NaN, 0.0335714, "- N/A -   "
5.32, 209.711, 0.00898279, NaN, NaN, NaN, 0.0347922, "- N/A -   "
5.38, 211.9516, 0.009082756, NaN, NaN, NaN, 0.0335714, "- N/A -   "
5.44, 214.546, 0.009185496, NaN, NaN, NaN, 0.0323506, "- N/A -   "
5.5, 216.552, 0.009277128, NaN, NaN, NaN, 0.0372337, "- N/A -   "
5.56, 218.6746, 0.00936876, NaN, NaN, NaN, 0.0396753, "- N/A -   "
5.62, 220.916, 0.009463171, NaN, NaN, NaN, 0.04211683, "- N/A -   "
5.68, 223.3925, 0.009568687, NaN, NaN, NaN, 0.0396753, "- N/A -   "
5.74, 225.6335, 0.00966865, NaN, NaN, NaN, 0.04089605, "- N/A -   "
5.8, 228.11, 0.009771389, NaN, NaN, NaN, 0.0396753, "- N/A -   "
5.86, 230.705, 0.009871352, NaN, NaN, NaN, 0.0384545, "- N/A -   "
5.92, 232.828, 0.009971315, NaN, NaN, NaN, 0.0384545, "- N/A -   "
5.98, 235.423, 0.0100796, NaN, NaN, NaN, 0.0347922, "- N/A -   "
6.04, 237.664, 0.0101796, NaN, NaN, NaN, 0.0347922, "- N/A -   "
6.1, 240.141, 0.0102795, NaN, NaN, NaN, 0.0347922, "- N/A -   "
6.16, 242.382, 0.0103767, NaN, NaN, NaN, 0.03601294, "- N/A -   "
6.22, 244.7387, 0.0104822, NaN, NaN, NaN, 0.0335714, "- N/A -   "
6.28, 246.86, 0.0105739, NaN, NaN, NaN, 0.0384545, "- N/A -   "
6.34, 249.216, 0.0106711, NaN, NaN, NaN, 0.0384545, "- N/A -   "
6.4, 251.337, 0.01076269, NaN, NaN, NaN, 0.04211683, "- N/A -   "
6.46, 253.811, 0.0108654, NaN, NaN, NaN, 0.04089605, "- N/A -   "
6.52, 256.5213, 0.0109821, NaN, NaN, NaN, 0.0347922, "- N/A -   "
6.58, 259.113, 0.0110903, NaN, NaN, NaN, 0.03112983, "- N/A -   "
6.64, 261.117, 0.011182, NaN, NaN, NaN, 0.0335714, "- N/A -   "
6.7, 263.473, 0.0112792, NaN, NaN, NaN, 0.0347922, "- N/A -   "
6.76, 266.065, 0.0113875, NaN, NaN, NaN, 0.03112983, "- N/A -   "
6.82, 268.304, 0.0114874, NaN, NaN, NaN, 0.03112983, "- N/A -   "
6.88, 270.66, 0.0115874, NaN, NaN, NaN, 0.03112983, "- N/A -   "
6.94, 272.546, 0.0116735, NaN, NaN, NaN, 0.0372337, "- N/A -   "
7, 274.549, 0.0117595, NaN, NaN, NaN, 0.0433376, "- N/A -   "
7.06, 276.67, 0.011854, NaN, NaN, NaN, 0.04577916, "- N/A -   "
7.12, 279.144, 0.01195947, NaN, NaN, NaN, 0.0433376, "- N/A -   "
7.18, 281.618, 0.01207054, NaN, NaN, NaN, 0.0396753, "- N/A -   "
7.24, 284.093, 0.0121788, NaN, NaN, NaN, 0.03601294, "- N/A -   "
7.3, 286.567, 0.0122816, NaN, NaN, NaN, 0.0335714, "- N/A -   "
7.36, 288.9235, 0.01238709, NaN, NaN, NaN, 0.03112983, "- N/A -   "
7.42, 291.28, 0.0124926, NaN, NaN, NaN, 0.0286883, "- N/A -   "
7.48, 293.283, 0.0125926, NaN, NaN, NaN, 0.0299091, "- N/A -   "
7.54, 295.404, 0.0126842, NaN, NaN, NaN, 0.0335714, "- N/A -   "
7.6, 297.0535, 0.0127675, NaN, NaN, NaN, 0.0396753, "- N/A -   "
7.66, 299.057, 0.0128564, NaN, NaN, NaN, 0.0445584, "- N/A -   "
7.72, 301.295, 0.0129591, NaN, NaN, NaN, 0.0433376, "- N/A -   "
7.78, 303.5339, 0.0130591, NaN, NaN, NaN, 0.0433376, "- N/A -   "
7.84, 305.8904, 0.0131674, NaN, NaN, NaN, 0.04089605, "- N/A -   "
7.9, 308.4826, 0.013284, NaN, NaN, NaN, 0.0335714, "- N/A -   "
7.96, 311.0748, 0.0134006, NaN, NaN, NaN, 0.0262467, "- N/A -   "
8.02, 313.196, 0.013495, NaN, NaN, NaN, 0.0286883, "- N/A -   "
8.08, 315.317, 0.0135894, NaN, NaN, NaN, 0.0299091, "- N/A -   "
8.14, 317.32, 0.0136838, NaN, NaN, NaN, 0.0323506, "- N/A -   "
8.2, 319.44, 0.0137782, NaN, NaN, NaN, 0.0372337, "- N/A -   "
8.26, 321.326, 0.0138727, NaN, NaN, NaN, 0.0384545, "- N/A -   "
8.32, 323.447, 0.0139671, NaN, NaN, NaN, 0.04211683, "- N/A -   "
8.38, 325.45, 0.0140587, NaN, NaN, NaN, 0.0445584, "- N/A -   "
8.44, 327.4526, 0.0141587, NaN, NaN, NaN, 0.0445584, "- N/A -   "
8.5, 330.0448, 0.014267, NaN, NaN, NaN, 0.04089605, "- N/A -   "
8.56, 332.519, 0.014378, NaN, NaN, NaN, 0.03601294, "- N/A -   "
8.62, 334.9935, 0.0144863, NaN, NaN, NaN, 0.0323506, "- N/A -   "
8.68, 336.8787, 0.0145807, NaN, NaN, NaN, 0.03601294, "- N/A -   "
8.74, 339, 0.01467791, NaN, NaN, NaN, 0.0372337, "- N/A -   "
8.8, 341.238, 0.0147779, NaN, NaN, NaN, 0.03601294, "- N/A -   "
8.86, 343.5948, 0.01488339, NaN, NaN, NaN, 0.0335714, "- N/A -   "
8.92, 345.48, 0.014975, NaN, NaN, NaN, 0.0372337, "- N/A -   "
8.98, 347.483, 0.0150667, NaN, NaN, NaN, 0.04089605, "- N/A -   "
8.99, 347.837, 0.0150805, NaN, NaN, NaN, 0.04211683, "- N/A -   "
9, 348.19, 0.0150972, NaN, NaN, NaN, 0.0433376, "- N/A -   "
9.01, 348.5435, 0.0151111, NaN, NaN, NaN, 0.0433376, "- N/A -   "
9.23, 357.027, 0.0154971, NaN, NaN, NaN, 0.03601294, "- N/A -   "
9.45, 365.393, 0.01586636, NaN, NaN, NaN, 0.0335714, "- N/A -   "
9.67, 373.287, 0.0162246, NaN, NaN, NaN, 0.0384545, "- N/A -   "
9.89, 381.299, 0.0165772, NaN, NaN, NaN, 0.0433376, "- N/A -   "
10.11, 390.2539, 0.016966, NaN, NaN, NaN, 0.0335714, "- N/A -   "
10.33, 398.3839, 0.01732693, NaN, NaN, NaN, 0.03601294, "- N/A -   "
10.55, 406.514, 0.0176824, NaN, NaN, NaN, 0.04089605, "- N/A -   "
10.77, 415.704, 0.0180767, NaN, NaN, NaN, 0.0286883, "- N/A -   "
10.99, 423.363, 0.018421, NaN, NaN, NaN, 0.0396753, "- N/A -   "
11.21, 431.493, 0.0187764, NaN, NaN, NaN, 0.0433376, "- N/A -   "
11.43, 440.919, 0.0191762, NaN, NaN, NaN, 0.0286883, "- N/A -   "
11.65, 448.9313, 0.0195233, NaN, NaN, NaN, 0.0372337, "- N/A -   "
11.87, 456.943, 0.0198704, NaN, NaN, NaN, 0.04577916, "- N/A -   "
12.09, 466.4874, 0.0202731, NaN, NaN, NaN, 0.0299091, "- N/A -   "
12.31, 474.853, 0.020634, NaN, NaN, NaN, 0.0335714, "- N/A -   "
12.53, 482.983, 0.0209839, NaN, NaN, NaN, 0.04089605, "- N/A -   "
12.75, 491.9378, 0.0213616, NaN, NaN, NaN, 0.0372337, "- N/A -   "
12.97, 501.01, 0.021742, NaN, NaN, NaN, 0.0299091, "- N/A -   "
13.19, 508.669, 0.0220752, NaN, NaN, NaN, 0.04577916, "- N/A -   "
13.41, 518.4678, 0.0224723, NaN, NaN, NaN, 0.03112983, "- N/A -   "
13.63, 527.2206, 0.02284156, NaN, NaN, NaN, 0.0299091, "- N/A -   "
13.85, 535.0271, 0.02317477, NaN, NaN, NaN, 0.04577916, "- N/A -   "
14.07, 544.49, 0.0235635, NaN, NaN, NaN, 0.03601294, "- N/A -   "
14.29, 553.7155, 0.0239412, NaN, NaN, NaN, 0.0299091, "- N/A -   "
14.51, 561.6403, 0.0242744, NaN, NaN, NaN, 0.0445584, "- N/A -   "
14.73, 571.4576, 0.0246687, NaN, NaN, NaN, 0.0335714, "- N/A -   "
14.95, 580.21, 0.0250324, NaN, NaN, NaN, 0.0347922, "- N/A -   "
15.17, 588.8449, 0.0253795, NaN, NaN, NaN, 0.04211683, "- N/A -   "
15.39, 598.544, 0.0257655, NaN, NaN, NaN, 0.0335714, "- N/A -   "
15.61, 607.415, 0.02612646, NaN, NaN, NaN, 0.03601294, "- N/A -   "
15.83, 616.1677, 0.0264791, NaN, NaN, NaN, 0.04211683, "- N/A -   "
16.05, 625.63, 0.02685952, NaN, NaN, NaN, 0.0372337, "- N/A -   "
16.27, 635.3293, 0.0272399, NaN, NaN, NaN, 0.0299091, "- N/A -   "
16.49, 644.2003, 0.0275981, NaN, NaN, NaN, 0.0335714, "- N/A -   "
16.71, 652.953, 0.027948, NaN, NaN, NaN, 0.04211683, "- N/A -   "
16.93, 662.7704, 0.0283284, NaN, NaN, NaN, 0.0347922, "- N/A -   "
17.15, 672.2329, 0.02869773, NaN, NaN, NaN, 0.0335714, "- N/A -   "
17.37, 680.8674, 0.0290448, NaN, NaN, NaN, 0.0445584, "- N/A -   "
17.59, 691.394, 0.0294475, NaN, NaN, NaN, 0.0274675, "- N/A -   "
17.81, 700.1472, 0.02979177, NaN, NaN, NaN, 0.0372337, "- N/A -   "
18.03, 709.2548, 0.0301472, NaN, NaN, NaN, 0.04211683, "- N/A -   "
18.25, 719.5452, 0.0305415, NaN, NaN, NaN, 0.03112983, "- N/A -   "
18.47, 728.653, 0.0308914, NaN, NaN, NaN, 0.0372337, "- N/A -   "
18.69, 737.6422, 0.0312385, NaN, NaN, NaN, 0.04577916, "- N/A -   "
18.91, 748.1692, 0.03163831, NaN, NaN, NaN, 0.03112983, "- N/A -   "
19.13, 757.6317, 0.03199929, NaN, NaN, NaN, 0.0347922, "- N/A -   "
19.35, 766.621, 0.0323519, NaN, NaN, NaN, 0.0396753, "- N/A -   "
19.57, 776.793, 0.0327296, NaN, NaN, NaN, 0.0347922, "- N/A -   "
19.79, 786.2557, 0.03309333, NaN, NaN, NaN, 0.03601294, "- N/A -   "
20.01, 795.5998, 0.0334488, NaN, NaN, NaN, 0.04089605, "- N/A -   "
20.23, 805.772, 0.0338319, NaN, NaN, NaN, 0.0335714, "- N/A -   "
20.45, 815.9441, 0.0342179, NaN, NaN, NaN, 0.0250259, "- N/A -   "
20.67, 824.105, 0.0345372, NaN, NaN, NaN, 0.04577916, "- N/A -   "
20.89, 834.5142, 0.03492876, NaN, NaN, NaN, 0.0347922, "- N/A -   "
21.11, 844.8046, 0.0353092, NaN, NaN, NaN, 0.0286883, "- N/A -   "
21.33, 853.2026, 0.03563961, NaN, NaN, NaN, 0.0445584, "- N/A -   "
21.55, 863.73, 0.0360284, NaN, NaN, NaN, 0.0347922, "- N/A -   "
21.77, 873.665, 0.0364032, NaN, NaN, NaN, 0.0323506, "- N/A -   "
21.99, 882.7728, 0.0367475, NaN, NaN, NaN, 0.04211683, "- N/A -   "
22.21, 893.063, 0.03712795, NaN, NaN, NaN, 0.03601294, "- N/A -   "
22.43, 902.9988, 0.0374973, NaN, NaN, NaN, 0.03601294, "- N/A -   "
22.65, 912.343, 0.0378444, NaN, NaN, NaN, 0.0433376, "- N/A -   "
22.87, 922.3969, 0.0382248, NaN, NaN, NaN, 0.0372337, "- N/A -   "
23.09, 932.3325, 0.0385996, NaN, NaN, NaN, 0.0335714, "- N/A -   "
23.31, 942.268, 0.0389689, NaN, NaN, NaN, 0.0323506, "- N/A -   "
23.53, 951.2574, 0.0393077, NaN, NaN, NaN, 0.0445584, "- N/A -   "
23.75, 961.9027, 0.03969922, NaN, NaN, NaN, 0.0347922, "- N/A -   "
23.97, 971.602, 0.040063, NaN, NaN, NaN, 0.03601294, "- N/A -   "
24.19, 980.946, 0.0404128, NaN, NaN, NaN, 0.0433376, "- N/A -   "
24.41, 991.7094, 0.0408071, NaN, NaN, NaN, 0.03112983, "- N/A -   "
24.63, 1001.05, 0.04116257, NaN, NaN, NaN, 0.0347922, "- N/A -   "
24.85, 1010.63, 0.0415152, NaN, NaN, NaN, 0.04211683, "- N/A -   "
25.07, 1021.35, 0.04190674, NaN, NaN, NaN, 0.0299091, "- N/A -   "
25.29, 1030.89, 0.04225383, NaN, NaN, NaN, 0.0384545, "- N/A -   "
25.51, 1040.67, 0.04261203, NaN, NaN, NaN, 0.0433376, "- N/A -   "
25.73, 1051.4, 0.0430036, NaN, NaN, NaN, 0.03112983, "- N/A -   "
25.95, 1061.65, 0.0433729, NaN, NaN, NaN, 0.0299091, "- N/A -   "
26.17, 1071.195, 0.0437227, NaN, NaN, NaN, 0.0372337, "- N/A -   "
26.39, 1081.09, 0.0440865, NaN, NaN, NaN, 0.04089605, "- N/A -   "
26.61, 1091.71, 0.0444669, NaN, NaN, NaN, 0.0335714, "- N/A -   "
26.83, 1101.13, 0.0448112, NaN, NaN, NaN, 0.0433376, "- N/A -   "
27.05, 1112.1, 0.04520552, NaN, NaN, NaN, 0.03112983, "- N/A -   "
27.27, 1122.23, 0.04557483, NaN, NaN, NaN, 0.0299091, "- N/A -   "
27.49, 1131.298, 0.045908, NaN, NaN, NaN, 0.0445584, "- N/A -   "
27.71, 1142.15, 0.04629956, NaN, NaN, NaN, 0.0347922, "- N/A -   "
27.93, 1152.52, 0.0466744, NaN, NaN, NaN, 0.0299091, "- N/A -   "
28.15, 1161.588, 0.0470049, NaN, NaN, NaN, 0.04699994, "- N/A -   "
28.37, 1172.44, 0.0473992, NaN, NaN, NaN, 0.0335714, "- N/A -   "
28.59, 1182.7, 0.0477657, NaN, NaN, NaN, 0.0335714, "- N/A -   "
28.81, 1192, 0.04811278, NaN, NaN, NaN, 0.04211683, "- N/A -   "
29.03, 1202.85, 0.0484987, NaN, NaN, NaN, 0.0347922, "- N/A -   "
29.25, 1212.747, 0.0488569, NaN, NaN, NaN, 0.0372337, "- N/A -   "
29.47, 1222.64, 0.0492124, NaN, NaN, NaN, 0.04211683, "- N/A -   "
29.69, 1233.26, 0.0495956, NaN, NaN, NaN, 0.0347922, "- N/A -   "
29.91, 1243.87, 0.0499704, NaN, NaN, NaN, 0.03112983, "- N/A -   "
30.13, 1253.77, 0.05033418, NaN, NaN, NaN, 0.0323506, "- N/A -   "
30.35, 1263.19, 0.0506729, NaN, NaN, NaN, 0.0445584, "- N/A -   "
30.57, 1274.04, 0.05106169, NaN, NaN, NaN, 0.0347922, "- N/A -   "
30.79, 1284.3, 0.05142822, NaN, NaN, NaN, 0.03601294, "- N/A -   "
31.01, 1293.72, 0.05177254, NaN, NaN, NaN, 0.04577916, "- N/A -   "
31.23, 1305.05, 0.0521779, NaN, NaN, NaN, 0.0299091, "- N/A -   "
31.45, 1314.59, 0.05252781, NaN, NaN, NaN, 0.0372337, "- N/A -   "
31.67, 1324.13, 0.0528666, NaN, NaN, NaN, 0.0494415, "- N/A -   "
31.89, 1335.46, 0.0532692, NaN, NaN, NaN, 0.0323506, "- N/A -   "
32.11, 1345.236, 0.0536246, NaN, NaN, NaN, 0.0372337, "- N/A -   "
32.33, 1354.9, 0.0539717, NaN, NaN, NaN, 0.04577916, "- N/A -   "
32.55, 1366.34, 0.0543744, NaN, NaN, NaN, 0.03112983, "- N/A -   "
32.77, 1376.24, 0.05472978, NaN, NaN, NaN, 0.0347922, "- N/A -   "
32.99, 1386.02, 0.0550852, NaN, NaN, NaN, 0.0396753, "- N/A -   "
33.21, 1396.63, 0.05546284, NaN, NaN, NaN, 0.03601294, "- N/A -   "
33.43, 1406.65, 0.0558294, NaN, NaN, NaN, 0.03601294, "- N/A -   "
33.65, 1416.55, 0.0561792, NaN, NaN, NaN, 0.04211683, "- N/A -   "
33.87, 1427.52, 0.0565708, NaN, NaN, NaN, 0.03112983, "- N/A -   "
34.09, 1437.89, 0.05694285, NaN, NaN, NaN, 0.0286883, "- N/A -   "
34.31, 1447.08, 0.05727606, NaN, NaN, NaN, 0.0433376, "- N/A -   "
34.53, 1457.81, 0.057662, NaN, NaN, NaN, 0.0347922, "- N/A -   "
34.75, 1468.42, 0.0580424, NaN, NaN, NaN, 0.0286883, "- N/A -   "
34.97, 1477.61, 0.0583812, NaN, NaN, NaN, 0.04211683, "- N/A -   "
35.19, 1488.22, 0.0587588, NaN, NaN, NaN, 0.03601294, "- N/A -   "
35.41, 1498.71, 0.0591365, NaN, NaN, NaN, 0.0335714, "- N/A -   "
35.63, 1508.25, 0.0594808, NaN, NaN, NaN, 0.04211683, "- N/A -   "
35.85, 1518.99, 0.0598612, NaN, NaN, NaN, 0.03601294, "- N/A -   "
36.07, 1528.884, 0.0602222, NaN, NaN, NaN, 0.0396753, "- N/A -   "
36.29, 1538.9, 0.06058317, NaN, NaN, NaN, 0.04089605, "- N/A -   "
36.51, 1549.51, 0.06096081, NaN, NaN, NaN, 0.03601294, "- N/A -   "
36.73, 1559.89, 0.06133567, NaN, NaN, NaN, 0.0323506, "- N/A -   "
36.95, 1569.91, 0.06169665, NaN, NaN, NaN, 0.03601294, "- N/A -   "
37.17, 1579.57, 0.0620437, NaN, NaN, NaN, 0.0433376, "- N/A -   "
37.39, 1590.42, 0.0624325, NaN, NaN, NaN, 0.0335714, "- N/A -   "
37.61, 1600.55, 0.06279624, NaN, NaN, NaN, 0.0347922, "- N/A -   "
37.83, 1610.09, 0.0631433, NaN, NaN, NaN, 0.0433376, "- N/A -   "
38.05, 1621.3, 0.06354319, NaN, NaN, NaN, 0.0286883, "- N/A -   "
38.27, 1630.73, 0.06388751, NaN, NaN, NaN, 0.0384545, "- N/A -   "
38.49, 1640.5, 0.06424293, NaN, NaN, NaN, 0.0445584, "- N/A -   "
38.71, 1651.71, 0.06464279, NaN, NaN, NaN, 0.0286883, "- N/A -   "
38.93, 1661.13, 0.0649871, NaN, NaN, NaN, 0.0384545, "- N/A -   "
39.15, 1670.91, 0.0653397, NaN, NaN, NaN, 0.0445584, "- N/A -   "
39.37, 1682, 0.06573682, NaN, NaN, NaN, 0.0323506, "- N/A -   "
39.59, 1692.26, 0.0661089, NaN, NaN, NaN, 0.0299091, "- N/A -   "
39.81, 1701.44, 0.0664449, NaN, NaN, NaN, 0.04211683, "- N/A -   "
40.03, 1711.94, 0.06682809, NaN, NaN, NaN, 0.03601294, "- N/A -   "
40.25, 1722.19, 0.0671974, NaN, NaN, NaN, 0.0347922, "- N/A -   "
40.47, 1731.73, 0.06754449, NaN, NaN, NaN, 0.0433376, "- N/A -   "
40.69, 1742.58, 0.06793879, NaN, NaN, NaN, 0.0323506, "- N/A -   "
40.768, 1746.04, 0.0680693, NaN, NaN, NaN, 0.03112983, "- N/A -   "