File: 2_Tensile_Data/Hamel_ForceTest_Bolt6_Test2.csv
Time, Load (lb), Position (in), AxialStrain (in), TransverseStrain (in), Auxiliary (), Control Out (V), Stress (psi)
0.0, 1.06153, 0.0, NaN, NaN, NaN, 0.04699994, "- N/A -   "
0.00999999, 1.29742, 1.38838e-05, NaN, NaN, NaN, 0.0482207, "- N/A -   "
0.02, 1.29742, 3.054427E-5, NaN, NaN, NaN, 0.0482207, "- N/A -   "
0.03, 1.53332, 4.442803E-5, NaN, NaN, NaN, 0.0494415, "- N/A -   "
0.04, 1.53332, 6.108854E-5, NaN, NaN, NaN, 0.0494415, "- N/A -   "
0.05, 1.65126, 8.05258E-5, NaN, NaN, NaN, 0.0494415, "- N/A -   "
0.06, 1.76921, 9.718631E-5, NaN, NaN, NaN, 0.0494415, "- N/A -   "
0.07, 1.88716, 0.000116624, NaN, NaN, NaN, 0.0482207, "- N/A -   "
0.08, 2.005107, 0.000133284, NaN, NaN, NaN, 0.04699994, "- N/A -   "
0.09, 2.241, 1.554981E-4, NaN, NaN, NaN, 0.0445584, "- N/A -   "
0.1, 2.35895, 0.000174935, NaN, NaN, NaN, 0.0433376, "- N/A -   "
0.11, 2.35895, 0.000194373, NaN, NaN, NaN, 0.0433376, "- N/A -   "
0.12, 2.476897, 2.138099E-4, NaN, NaN, NaN, 0.04089605, "- N/A -   "
0.13, 2.59484, 2.304704E-4, NaN, NaN, NaN, 0.04089605, "- N/A -   "
0.14, 2.83074, 0.000249908, NaN, NaN, NaN, 0.0396753, "- N/A -   "
0.15, 2.83074, 2.721217E-4, NaN, NaN, NaN, 0.0384545, "- N/A -   "
0.16, 2.94869, 0.000288782, NaN, NaN, NaN, 0.0372337, "- N/A -   "
0.17, 3.06663, 3.109962E-4, NaN, NaN, NaN, 0.03601294, "- N/A -   "
0.18, 3.18458, 0.000327657, NaN, NaN, NaN, 0.0347922, "- N/A -   "
0.19, 3.30253, 0.000347094, NaN, NaN, NaN, 0.0335714, "- N/A -   "
0.2, 3.53842, 0.000366531, NaN, NaN, NaN, 0.0323506, "- N/A -   "
0.21, 3.65637, 3.859685E-4, NaN, NaN, NaN, 0.03112983, "- N/A -   "
0.22, 3.774319, 0.000402629, NaN, NaN, NaN, 0.03112983, "- N/A -   "
0.23, 3.89227, 0.000422066, NaN, NaN, NaN, 0.03112983, "- N/A -   "
0.24, 4.010214, 4.387268E-4, NaN, NaN, NaN, 0.0299091, "- N/A -   "
0.25, 4.12816, 4.553873E-4, NaN, NaN, NaN, 0.03112983, "- N/A -   "
0.26, 4.246109, 4.720478E-4, NaN, NaN, NaN, 0.0299091, "- N/A -   "
0.27, 4.36406, 4.887083E-4, NaN, NaN, NaN, 0.03112983, "- N/A -   "
0.28, 4.36406, 5.053688E-4, NaN, NaN, NaN, 0.0299091, "- N/A -   "
0.29, 4.59995, 0.000522029, NaN, NaN, NaN, 0.0299091, "- N/A -   "
0.3, 4.59995, 0.00053869, NaN, NaN, NaN, 0.0299091, "- N/A -   "
0.31, 4.717899, 5.553504E-4, NaN, NaN, NaN, 0.0299091, "- N/A -   "
0.32, 4.83585, 5.720109E-4, NaN, NaN, NaN, 0.0299091, "- N/A -   "
0.33, 4.953794, 0.000588671, NaN, NaN, NaN, 0.03112983, "- N/A -   "
0.34, 5.071741, 0.000602555, NaN, NaN, NaN, 0.03112983, "- N/A -   "
0.35, 5.071741, 6.164389E-4, NaN, NaN, NaN, 0.0323506, "- N/A -   "
0.36, 5.307636, 6.330994E-4, NaN, NaN, NaN, 0.0323506, "- N/A -   "
0.37, 5.425584, 6.497599E-4, NaN, NaN, NaN, 0.0323506, "- N/A -   "
0.38, 5.54353, 0.00066642, NaN, NaN, NaN, 0.0323506, "- N/A -   "
0.39, 5.66148, 6.803042E-4, NaN, NaN, NaN, 0.0335714, "- N/A -   "
0.4, 5.779426, 0.000694188, NaN, NaN, NaN, 0.0347922, "- N/A -   "
0.41, 5.779426, 7.108485E-4, NaN, NaN, NaN, 0.0347922, "- N/A -   "
0.42, 5.897373, 7.27509E-4, NaN, NaN, NaN, 0.0347922, "- N/A -   "
0.43, 6.01532, 0.000744169, NaN, NaN, NaN, 0.0347922, "- N/A -   "
0.44, 6.13327, 0.000758053, NaN, NaN, NaN, 0.03601294, "- N/A -   "
0.45, 6.369163, 0.000774714, NaN, NaN, NaN, 0.03601294, "- N/A -   "
0.46, 6.487111, 0.000791374, NaN, NaN, NaN, 0.03601294, "- N/A -   "
0.47, 6.723006, 8.080348E-4, NaN, NaN, NaN, 0.03601294, "- N/A -   "
0.48, 6.84095, 8.246953E-4, NaN, NaN, NaN, 0.0372337, "- N/A -   "
0.49, 6.9589, 8.413558E-4, NaN, NaN, NaN, 0.0372337, "- N/A -   "
0.5, 7.1948, 8.580163E-4, NaN, NaN, NaN, 0.03601294, "- N/A -   "
0.51, 7.430691, 8.746768E-4, NaN, NaN, NaN, 0.03601294, "- N/A -   "
0.71, 11.7947, 0.00118845, NaN, NaN, NaN, 0.0445584, "- N/A -   "
0.91, 17.1024, 0.0015522, NaN, NaN, NaN, 0.0323506, "- N/A -   "
1.11, 22.29207, 0.00188264, NaN, NaN, NaN, 0.0335714, "- N/A -   "
1.31, 27.5997, 0.00220196, NaN, NaN, NaN, 0.0384545, "- N/A -   "
1.51, 33.49708, 0.00254073, NaN, NaN, NaN, 0.03601294, "- N/A -   "
1.71, 39.5124, 0.00288227, NaN, NaN, NaN, 0.0323506, "- N/A -   "
1.91, 45.40978, 0.003215479, NaN, NaN, NaN, 0.0323506, "- N/A -   "
2.11, 51.1892, 0.003523698, NaN, NaN, NaN, 0.0445584, "- N/A -   "
2.31, 57.6763, 0.00388468, NaN, NaN, NaN, 0.03112983, "- N/A -   "
2.51, 64.04548, 0.00422066, NaN, NaN, NaN, 0.03112983, "- N/A -   "
2.71, 69.47106, 0.004523329, NaN, NaN, NaN, 0.0433376, "- N/A -   "
2.91, 75.8402, 0.004875976, NaN, NaN, NaN, 0.03601294, "- N/A -   "
3.11, 81.8555, 0.00522307, NaN, NaN, NaN, 0.0286883, "- N/A -   "
3.31, 86.80934, 0.00552574, NaN, NaN, NaN, 0.0433376, "- N/A -   "
3.51, 92.47082, 0.0058645, NaN, NaN, NaN, 0.04089605, "- N/A -   "
3.71, 98.2502, 0.006225478, NaN, NaN, NaN, 0.0299091, "- N/A -   "
3.91, 103.322, 0.00654203, NaN, NaN, NaN, 0.03601294, "- N/A -   "
4.11, 108.512, 0.00686135, NaN, NaN, NaN, 0.0433376, "- N/A -   "
4.31, 114.527, 0.007219555, NaN, NaN, NaN, 0.03112983, "- N/A -   "
4.51, 119.953, 0.007549988, NaN, NaN, NaN, 0.0323506, "- N/A -   "
4.71, 125.142, 0.007863761, NaN, NaN, NaN, 0.04089605, "- N/A -   "
4.91, 130.922, 0.008205301, NaN, NaN, NaN, 0.0372337, "- N/A -   "
5.11, 136.583, 0.008549619, NaN, NaN, NaN, 0.0323506, "- N/A -   "
5.31, 142.1267, 0.008880053, NaN, NaN, NaN, 0.0347922, "- N/A -   "
5.51, 147.552, 0.009193826, NaN, NaN, NaN, 0.04211683, "- N/A -   "
5.71, 153.8035, 0.009549249, NaN, NaN, NaN, 0.0323506, "- N/A -   "
5.91, 159.583, 0.00989079, NaN, NaN, NaN, 0.0299091, "- N/A -   "
6.11, 164.773, 0.0101879, NaN, NaN, NaN, 0.0445584, "- N/A -   "
6.31, 171.142, 0.0105433, NaN, NaN, NaN, 0.03601294, "- N/A -   "
6.51, 177.275, 0.0108932, NaN, NaN, NaN, 0.0274675, "- N/A -   "
6.71, 182.583, 0.0111959, NaN, NaN, NaN, 0.04089605, "- N/A -   "
6.91, 188.716, 0.0115291, NaN, NaN, NaN, 0.04089605, "- N/A -   "
7.11, 195.439, 0.0118901, NaN, NaN, NaN, 0.0286883, "- N/A -   "
7.31, 201.454, 0.0122066, NaN, NaN, NaN, 0.03601294, "- N/A -   "
7.51, 207.2337, 0.0125204, NaN, NaN, NaN, 0.0445584, "- N/A -   "
7.71, 214.546, 0.0128952, NaN, NaN, NaN, 0.0262467, "- N/A -   "
7.91, 220.798, 0.01321734, NaN, NaN, NaN, 0.0323506, "- N/A -   "
8.11, 226.577, 0.0135283, NaN, NaN, NaN, 0.04211683, "- N/A -   "
8.31, 233.654, 0.0138782, NaN, NaN, NaN, 0.0347922, "- N/A -   "
8.51, 240.141, 0.01420864, NaN, NaN, NaN, 0.03601294, "- N/A -   "
8.71, 246.86, 0.0145474, NaN, NaN, NaN, 0.0347922, "- N/A -   "
8.91, 252.8687, 0.0148556, NaN, NaN, NaN, 0.0445584, "- N/A -   "
9.11, 260.41, 0.0152194, NaN, NaN, NaN, 0.03112983, "- N/A -   "
9.31, 267.479, 0.0155609, NaN, NaN, NaN, 0.0286883, "- N/A -   "
9.51, 273.253, 0.0158553, NaN, NaN, NaN, 0.0445584, "- N/A -   "
9.71, 280.676, 0.0162079, NaN, NaN, NaN, 0.03601294, "- N/A -   "
9.91, 287.981, 0.0165578, NaN, NaN, NaN, 0.0286883, "- N/A -   "
10.11, 294.226, 0.0168604, NaN, NaN, NaN, 0.04211683, "- N/A -   "
10.31, 301.1774, 0.0171909, NaN, NaN, NaN, 0.0433376, "- N/A -   "
10.51, 309.072, 0.0175574, NaN, NaN, NaN, 0.0286883, "- N/A -   "
10.71, 315.906, 0.01787673, NaN, NaN, NaN, 0.0347922, "- N/A -   "
10.91, 322.622, 0.0181877, NaN, NaN, NaN, 0.0445584, "- N/A -   "
11.11, 331.105, 0.0185681, NaN, NaN, NaN, 0.0250259, "- N/A -   "
11.31, 337.232, 0.0188625, NaN, NaN, NaN, 0.04089605, "- N/A -   "
11.51, 344.1839, 0.019179, NaN, NaN, NaN, 0.0482207, "- N/A -   "
11.71, 352.55, 0.01955111, NaN, NaN, NaN, 0.03112983, "- N/A -   "
11.91, 359.8548, 0.0198815, NaN, NaN, NaN, 0.0323506, "- N/A -   "
12.11, 367.278, 0.0202148, NaN, NaN, NaN, 0.0323506, "- N/A -   "
12.31, 374.23, 0.0205285, NaN, NaN, NaN, 0.04211683, "- N/A -   "
12.51, 382.36, 0.0208784, NaN, NaN, NaN, 0.0347922, "- N/A -   "
12.71, 390.1361, 0.0212227, NaN, NaN, NaN, 0.0299091, "- N/A -   "
12.91, 396.97, 0.0215226, NaN, NaN, NaN, 0.0445584, "- N/A -   "
13.11, 404.982, 0.0218697, NaN, NaN, NaN, 0.0384545, "- N/A -   "
13.31, 413.23, 0.0222279, NaN, NaN, NaN, 0.0274675, "- N/A -   "
13.51, 420.0639, 0.0225306, NaN, NaN, NaN, 0.04089605, "- N/A -   "
13.71, 427.84, 0.022861, NaN, NaN, NaN, 0.0433376, "- N/A -   "
13.91, 436.442, 0.0232192, NaN, NaN, NaN, 0.03112983, "- N/A -   "
14.11, 443.9826, 0.0235385, NaN, NaN, NaN, 0.0384545, "- N/A -   "
14.31, 451.523, 0.02386063, NaN, NaN, NaN, 0.04211683, "- N/A -   "
14.51, 460.2426, 0.0242244, NaN, NaN, NaN, 0.0286883, "- N/A -   "
14.71, 467.901, 0.02454371, NaN, NaN, NaN, 0.0347922, "- N/A -   "
14.91, 475.442, 0.024863, NaN, NaN, NaN, 0.04089605, "- N/A -   "
15.11, 483.69, 0.0252018, NaN, NaN, NaN, 0.0384545, "- N/A -   "
15.31, 491.9378, 0.0255461, NaN, NaN, NaN, 0.0347922, "- N/A -   "
15.51, 499.832, 0.0258738, NaN, NaN, NaN, 0.03601294, "- N/A -   "
15.71, 507.609, 0.0261959, NaN, NaN, NaN, 0.04089605, "- N/A -   "
15.91, 516.339, 0.0265541, NaN, NaN, NaN, 0.03112983, "- N/A -   "
16.11, 524.7367, 0.0268928, NaN, NaN, NaN, 0.0274675, "- N/A -   "
16.31, 531.9518, 0.02719551, NaN, NaN, NaN, 0.04089605, "- N/A -   "
16.51, 540.5863, 0.027537, NaN, NaN, NaN, 0.0384545, "- N/A -   "
16.71, 549.2208, 0.0278897, NaN, NaN, NaN, 0.0286883, "- N/A -   "
16.91, 556.6725, 0.0281951, NaN, NaN, NaN, 0.04211683, "- N/A -   "
17.11, 564.716, 0.02852835, NaN, NaN, NaN, 0.04211683, "- N/A -   "
17.31, 574.2963, 0.02889488, NaN, NaN, NaN, 0.0274675, "- N/A -   "
17.51, 581.9846, 0.0292059, NaN, NaN, NaN, 0.0372337, "- N/A -   "
17.71, 589.9094, 0.0295224, NaN, NaN, NaN, 0.0445584, "- N/A -   "
17.91, 599.3719, 0.02988618, NaN, NaN, NaN, 0.03112983, "- N/A -   "
18.11, 607.2967, 0.03020273, NaN, NaN, NaN, 0.0384545, "- N/A -   "
18.31, 615.576, 0.03052761, NaN, NaN, NaN, 0.04211683, "- N/A -   "
18.51, 624.3291, 0.03086915, NaN, NaN, NaN, 0.0396753, "- N/A -   "
18.71, 633.2002, 0.0312162, NaN, NaN, NaN, 0.0323506, "- N/A -   "
18.91, 641.8347, 0.0315522, NaN, NaN, NaN, 0.03112983, "- N/A -   "
19.11, 649.405, 0.0318577, NaN, NaN, NaN, 0.0433376, "- N/A -   "
19.31, 658.9855, 0.0322159, NaN, NaN, NaN, 0.0323506, "- N/A -   "
19.51, 667.62, 0.03255464, NaN, NaN, NaN, 0.0299091, "- N/A -   "
19.71, 674.953, 0.0328545, NaN, NaN, NaN, 0.0445584, "- N/A -   "
19.91, 684.5341, 0.03321, NaN, NaN, NaN, 0.03601294, "- N/A -   "
20.11, 693.6417, 0.033557, NaN, NaN, NaN, 0.0286883, "- N/A -   "
20.31, 701.8031, 0.0338764, NaN, NaN, NaN, 0.0347922, "- N/A -   "
20.51, 710.083, 0.0341901, NaN, NaN, NaN, 0.0433376, "- N/A -   "
20.71, 719.9001, 0.0345567, NaN, NaN, NaN, 0.0286883, "- N/A -   "
20.91, 727.9432, 0.0348677, NaN, NaN, NaN, 0.0384545, "- N/A -   "
21.11, 736.2228, 0.035187, NaN, NaN, NaN, 0.0445584, "- N/A -   "
21.31, 746.1584, 0.03555353, NaN, NaN, NaN, 0.03112983, "- N/A -   "
21.51, 754.6746, 0.0358784, NaN, NaN, NaN, 0.03601294, "- N/A -   "
21.71, 763.191, 0.03620329, NaN, NaN, NaN, 0.0384545, "- N/A -   "
21.91, 771.8254, 0.03653095, NaN, NaN, NaN, 0.04089605, "- N/A -   "
22.11, 781.0513, 0.0368808, NaN, NaN, NaN, 0.0347922, "- N/A -   "
22.31, 789.5675, 0.0372057, NaN, NaN, NaN, 0.0372337, "- N/A -   "
22.51, 797.847, 0.0375278, NaN, NaN, NaN, 0.04211683, "- N/A -   "
22.71, 807.5462, 0.037886, NaN, NaN, NaN, 0.0323506, "- N/A -   "
22.91, 816.181, 0.0382192, NaN, NaN, NaN, 0.03112983, "- N/A -   "
23.11, 824.4603, 0.03853298, NaN, NaN, NaN, 0.04089605, "- N/A -   "
23.31, 833.4497, 0.0388662, NaN, NaN, NaN, 0.0396753, "- N/A -   "
23.51, 842.9121, 0.03922717, NaN, NaN, NaN, 0.0286883, "- N/A -   "
23.71, 851.0735, 0.0395409, NaN, NaN, NaN, 0.0372337, "- N/A -   "
23.91, 859.3532, 0.03985194, NaN, NaN, NaN, 0.04577916, "- N/A -   "
24.11, 869.5254, 0.0402296, NaN, NaN, NaN, 0.0262467, "- N/A -   "
24.31, 877.805, 0.04054335, NaN, NaN, NaN, 0.0347922, "- N/A -   "
24.51, 886.203, 0.0408599, NaN, NaN, NaN, 0.04211683, "- N/A -   "
24.71, 895.429, 0.0412042, NaN, NaN, NaN, 0.0372337, "- N/A -   "
24.91, 904.063, 0.0415347, NaN, NaN, NaN, 0.0384545, "- N/A -   "
25.11, 913.0527, 0.0418679, NaN, NaN, NaN, 0.0384545, "- N/A -   "
25.31, 922.042, 0.0422066, NaN, NaN, NaN, 0.03601294, "- N/A -   "
25.51, 931.15, 0.04254817, NaN, NaN, NaN, 0.0335714, "- N/A -   "
25.71, 940.021, 0.0428842, NaN, NaN, NaN, 0.0323506, "- N/A -   "
25.91, 948.4187, 0.04319515, NaN, NaN, NaN, 0.04211683, "- N/A -   "
26.11, 957.7628, 0.04353947, NaN, NaN, NaN, 0.0372337, "- N/A -   "
26.31, 966.9888, 0.04388656, NaN, NaN, NaN, 0.03112983, "- N/A -   "
26.51, 975.032, 0.04419756, NaN, NaN, NaN, 0.04211683, "- N/A -   "
26.71, 984.0212, 0.04452799, NaN, NaN, NaN, 0.04211683, "- N/A -   "
26.91, 993.9568, 0.04489175, NaN, NaN, NaN, 0.0286883, "- N/A -   "
27.11, 1002.24, 0.0452083, NaN, NaN, NaN, 0.03601294, "- N/A -   "
27.31, 1010.75, 0.0455248, NaN, NaN, NaN, 0.0445584, "- N/A -   "
27.51, 1020.87, 0.0458886, NaN, NaN, NaN, 0.0299091, "- N/A -   "
27.71, 1029.576, 0.0462135, NaN, NaN, NaN, 0.0335714, "- N/A -   "
27.91, 1038.04, 0.0465245, NaN, NaN, NaN, 0.0433376, "- N/A -   "
28.11, 1048.06, 0.0468827, NaN, NaN, NaN, 0.0323506, "- N/A -   "
28.31, 1056.77, 0.0472076, NaN, NaN, NaN, 0.03601294, "- N/A -   "
28.51, 1065.83, 0.04753799, NaN, NaN, NaN, 0.0372337, "- N/A -   "
28.71, 1074.534, 0.0478656, NaN, NaN, NaN, 0.04089605, "- N/A -   "
28.91, 1083.72, 0.04820163, NaN, NaN, NaN, 0.0396753, "- N/A -   "
29.11, 1093.14, 0.04854873, NaN, NaN, NaN, 0.0323506, "- N/A -   "
29.31, 1101.6, 0.0488681, NaN, NaN, NaN, 0.0384545, "- N/A -   "
29.51, 1111.14, 0.0492124, NaN, NaN, NaN, 0.0335714, "- N/A -   "
29.71, 1120.21, 0.04954836, NaN, NaN, NaN, 0.0323506, "- N/A -   "
29.91, 1128.67, 0.0498705, NaN, NaN, NaN, 0.0384545, "- N/A -   "
30.11, 1137.62, 0.05019812, NaN, NaN, NaN, 0.04089605, "- N/A -   "
30.142, 1139.29, 0.050262, NaN, NaN, NaN, 0.03601294, "- N/A -   "